File: Mixture_Classification/Jesse_Dataset_v2/Pure Raman/Polypropylene oxide/785nm/ps-ppo-6jan25-0,0000-map2_Y01_X09.txt
204.377	398
211.048	336
217.712	352
224.369	484
231.019	884
237.661	912
244.297	646
250.924	400
257.546	274
264.16	210
270.766	186
277.365	176
283.958	236
290.543	382
297.121	416
303.693	336
310.256	252
316.813	232
323.362	232
329.905	250
336.441	262
342.969	234
349.491	216
356.006	218
362.513	198
369.014	202
375.508	174
381.994	164
388.473	138
394.947	122
401.412	126
407.871	148
414.323	214
420.768	156
427.206	116
433.637	102
440.062	92
446.479	74
452.89	82
459.293	82
465.691	98
472.081	160
478.463	234
484.84	290
491.21	188
497.573	112
503.929	94
510.279	160
516.621	180
522.957	160
529.287	232
535.609	434
541.925	428
548.234	206
554.536	208
560.832	408
567.12	1472
573.403	2014
579.679	530
585.948	330
592.211	264
598.466	220
604.715	118
610.958	94
617.194	94
623.424	104
629.647	134
635.864	150
642.074	132
648.276	102
654.473	86
660.664	74
666.847	66
673.025	70
679.195	60
685.36	64
691.517	58
697.669	62
703.814	66
709.953	82
716.085	100
722.21	78
728.33	80
734.443	70
740.549	92
746.65	142
752.743	120
758.831	90
764.912	64
770.986	70
777.055	76
783.117	80
789.173	70
795.222	60
801.265	70
807.302	74
813.333	72
819.357	90
825.376	136
831.387	496
837.392	256
843.392	100
849.386	96
855.372	96
861.353	82
867.328	76
873.296	66
879.258	62
885.214	64
891.164	60
897.108	56
903.046	60
908.977	54
914.903	54
920.822	56
926.735	60
932.643	60
938.543	68
944.439	94
950.328	158
956.21	290
962.088	374
967.958	244
973.824	134
979.682	82
985.534	66
991.382	76
997.222	70
1003.06	68
1008.89	64
1014.71	66
1020.53	76
1026.34	88
1032.14	92
1037.94	94
1043.73	82
1049.52	66
1055.3	62
1061.08	66
1066.85	62
1072.61	68
1078.37	54
1084.12	64
1089.87	62
1095.61	70
1101.34	86
1107.07	136
1112.8	354
1118.51	152
1124.22	110
1129.93	90
1135.63	80
1141.32	92
1147.01	76
1152.69	66
1158.37	78
1164.04	90
1169.71	90
1175.37	88
1181.02	134
1186.67	256
1192.31	170
1197.95	162
1203.58	162
1209.2	126
1214.82	90
1220.44	84
1226.05	116
1231.65	138
1237.25	100
1242.84	94
1248.42	84
1254	90
1259.58	90
1265.15	90
1270.71	92
1276.27	112
1281.82	136
1287.37	160
1292.91	188
1298.45	338
1303.98	784
1309.5	534
1315.02	270
1320.53	198
1326.04	178
1331.54	170
1337.04	146
1342.53	160
1348.02	146
1353.5	154
1358.98	150
1364.45	144
1369.91	182
1375.37	356
1380.82	432
1386.27	262
1391.71	152
1397.15	140
1402.58	142
1408.01	132
1413.43	142
1418.85	158
1424.26	188
1429.66	198
1435.06	200
1440.46	210
1445.85	190
1451.23	168
1456.61	172
1461.98	162
1467.35	150
1472.71	152
1478.07	146
1483.42	128
1488.77	130
1494.11	124
1499.45	108
1504.78	118
1510.11	118
1515.43	108
1520.74	120
1526.05	106
1531.36	122
1536.66	104
1541.95	106
1547.24	112
1552.52	108
1557.8	104
1563.08	108
1568.35	118
1573.61	126
1578.87	138
1584.12	176
1589.37	230
1594.61	340
1599.85	470
1605.08	438
1610.31	364
1615.53	258
1620.75	168
1625.96	130
1631.17	116
1636.37	104
1641.57	84
1646.76	96
1651.95	80
1657.13	86
1662.31	80
1667.48	78
1672.65	84
1677.81	80
1682.97	78
1688.12	86
1693.27	76
1698.41	80
1702.26	74