File: Mixture_Classification/Jesse_Dataset_v2/Pure Raman/Polypropylene oxide/785nm/ps-ppo-6jan25-0,0000-map2_Y02_X02.txt
204.377	392
211.048	354
217.712	328
224.369	510
231.019	914
237.661	934
244.297	670
250.924	388
257.546	278
264.16	206
270.766	184
277.365	182
283.958	236
290.543	386
297.121	454
303.693	330
310.256	264
316.813	238
323.362	240
329.905	270
336.441	246
342.969	226
349.491	216
356.006	234
362.513	182
369.014	188
375.508	196
381.994	164
388.473	126
394.947	122
401.412	126
407.871	160
414.323	232
420.768	172
427.206	118
433.637	104
440.062	86
446.479	86
452.89	82
459.293	86
465.691	110
472.081	166
478.463	240
484.84	290
491.21	184
497.573	118
503.929	106
510.279	168
516.621	186
522.957	154
529.287	236
535.609	426
541.925	426
548.234	226
554.536	212
560.832	410
567.12	1486
573.403	2032
579.679	532
585.948	334
592.211	286
598.466	212
604.715	128
610.958	94
617.194	94
623.424	108
629.647	138
635.864	164
642.074	138
648.276	104
654.473	80
660.664	74
666.847	66
673.025	64
679.195	62
685.36	66
691.517	50
697.669	62
703.814	66
709.953	76
716.085	96
722.21	78
728.33	80
734.443	84
740.549	96
746.65	146
752.743	126
758.831	88
764.912	76
770.986	74
777.055	82
783.117	78
789.173	74
795.222	56
801.265	66
807.302	68
813.333	78
819.357	84
825.376	138
831.387	520
837.392	252
843.392	104
849.386	98
855.372	84
861.353	78
867.328	72
873.296	62
879.258	60
885.214	60
891.164	52
897.108	60
903.046	54
908.977	58
914.903	50
920.822	58
926.735	64
932.643	68
938.543	72
944.439	92
950.328	152
956.21	314
962.088	368
967.958	232
973.824	138
979.682	80
985.534	74
991.382	76
997.222	70
1003.06	64
1008.89	62
1014.71	70
1020.53	78
1026.34	90
1032.14	106
1037.94	94
1043.73	86
1049.52	64
1055.3	74
1061.08	62
1066.85	62
1072.61	64
1078.37	64
1084.12	60
1089.87	70
1095.61	74
1101.34	78
1107.07	134
1112.8	370
1118.51	170
1124.22	110
1129.93	86
1135.63	92
1141.32	84
1147.01	86
1152.69	80
1158.37	86
1164.04	84
1169.71	80
1175.37	104
1181.02	152
1186.67	240
1192.31	176
1197.95	160
1203.58	184
1209.2	128
1214.82	96
1220.44	88
1226.05	112
1231.65	140
1237.25	92
1242.84	82
1248.42	86
1254	90
1259.58	90
1265.15	94
1270.71	98
1276.27	96
1281.82	140
1287.37	156
1292.91	196
1298.45	352
1303.98	784
1309.5	536
1315.02	268
1320.53	204
1326.04	190
1331.54	172
1337.04	152
1342.53	158
1348.02	174
1353.5	166
1358.98	142
1364.45	154
1369.91	178
1375.37	354
1380.82	444
1386.27	266
1391.71	162
1397.15	140
1402.58	140
1408.01	142
1413.43	136
1418.85	168
1424.26	180
1429.66	198
1435.06	224
1440.46	224
1445.85	210
1451.23	186
1456.61	162
1461.98	162
1467.35	150
1472.71	146
1478.07	150
1483.42	142
1488.77	120
1494.11	122
1499.45	116
1504.78	106
1510.11	118
1515.43	106
1520.74	108
1526.05	112
1531.36	118
1536.66	112
1541.95	122
1547.24	116
1552.52	106
1557.8	120
1563.08	114
1568.35	114
1573.61	118
1578.87	144
1584.12	162
1589.37	244
1594.61	354
1599.85	454
1605.08	490
1610.31	392
1615.53	254
1620.75	188
1625.96	132
1631.17	106
1636.37	102
1641.57	88
1646.76	86
1651.95	86
1657.13	80
1662.31	80
1667.48	82
1672.65	82
1677.81	82
1682.97	78
1688.12	90
1693.27	86
1698.41	80
1702.26	80