File: Mixture_Classification/Jesse_Dataset_v2/Pure Raman/Polypropylene oxide/785nm/ps-ppo-6jan25-0,0000-map2_Y03_X09.txt
204.377	384
211.048	366
217.712	350
224.369	494
231.019	932
237.661	932
244.297	656
250.924	428
257.546	278
264.16	214
270.766	196
277.365	184
283.958	236
290.543	372
297.121	464
303.693	354
310.256	256
316.813	240
323.362	254
329.905	266
336.441	270
342.969	228
349.491	206
356.006	220
362.513	184
369.014	192
375.508	190
381.994	140
388.473	146
394.947	136
401.412	132
407.871	168
414.323	222
420.768	166
427.206	114
433.637	102
440.062	88
446.479	80
452.89	82
459.293	88
465.691	112
472.081	160
478.463	248
484.84	310
491.21	182
497.573	110
503.929	100
510.279	172
516.621	176
522.957	158
529.287	250
535.609	418
541.925	438
548.234	222
554.536	224
560.832	442
567.12	1508
573.403	2056
579.679	514
585.948	314
592.211	278
598.466	220
604.715	124
610.958	88
617.194	94
623.424	96
629.647	132
635.864	148
642.074	124
648.276	96
654.473	88
660.664	78
666.847	66
673.025	62
679.195	66
685.36	72
691.517	62
697.669	60
703.814	64
709.953	84
716.085	100
722.21	88
728.33	76
734.443	86
740.549	92
746.65	152
752.743	126
758.831	96
764.912	72
770.986	66
777.055	80
783.117	84
789.173	70
795.222	70
801.265	64
807.302	68
813.333	70
819.357	86
825.376	144
831.387	530
837.392	246
843.392	108
849.386	88
855.372	82
861.353	76
867.328	74
873.296	64
879.258	64
885.214	58
891.164	58
897.108	58
903.046	62
908.977	56
914.903	54
920.822	54
926.735	58
932.643	66
938.543	72
944.439	98
950.328	152
956.21	300
962.088	376
967.958	244
973.824	130
979.682	94
985.534	72
991.382	82
997.222	68
1003.06	70
1008.89	70
1014.71	60
1020.53	78
1026.34	88
1032.14	100
1037.94	88
1043.73	90
1049.52	70
1055.3	70
1061.08	70
1066.85	60
1072.61	60
1078.37	60
1084.12	60
1089.87	64
1095.61	66
1101.34	90
1107.07	150
1112.8	358
1118.51	148
1124.22	108
1129.93	86
1135.63	82
1141.32	88
1147.01	80
1152.69	80
1158.37	82
1164.04	100
1169.71	84
1175.37	102
1181.02	146
1186.67	254
1192.31	188
1197.95	166
1203.58	172
1209.2	134
1214.82	92
1220.44	92
1226.05	120
1231.65	128
1237.25	94
1242.84	86
1248.42	90
1254	84
1259.58	96
1265.15	94
1270.71	90
1276.27	112
1281.82	122
1287.37	154
1292.91	198
1298.45	358
1303.98	782
1309.5	546
1315.02	266
1320.53	198
1326.04	192
1331.54	170
1337.04	156
1342.53	158
1348.02	170
1353.5	160
1358.98	154
1364.45	156
1369.91	182
1375.37	360
1380.82	428
1386.27	276
1391.71	168
1397.15	136
1402.58	138
1408.01	126
1413.43	148
1418.85	160
1424.26	190
1429.66	190
1435.06	206
1440.46	200
1445.85	194
1451.23	168
1456.61	166
1461.98	154
1467.35	154
1472.71	152
1478.07	146
1483.42	132
1488.77	122
1494.11	114
1499.45	116
1504.78	104
1510.11	108
1515.43	110
1520.74	110
1526.05	104
1531.36	116
1536.66	110
1541.95	110
1547.24	110
1552.52	112
1557.8	110
1563.08	114
1568.35	122
1573.61	130
1578.87	160
1584.12	182
1589.37	246
1594.61	350
1599.85	466
1605.08	484
1610.31	360
1615.53	278
1620.75	170
1625.96	132
1631.17	110
1636.37	90
1641.57	94
1646.76	92
1651.95	92
1657.13	88
1662.31	82
1667.48	82
1672.65	80
1677.81	78
1682.97	78
1688.12	82
1693.27	82
1698.41	82
1702.26	76