File: Mixture_Classification/Jesse_Dataset_v2/Pure Raman/Polypropylene oxide/785nm/ps-ppo-6jan25-0,0000-map2_Y09_X10.txt
204.377	362
211.048	318
217.712	338
224.369	470
231.019	858
237.661	878
244.297	598
250.924	388
257.546	246
264.16	196
270.766	184
277.365	178
283.958	218
290.543	380
297.121	436
303.693	312
310.256	254
316.813	216
323.362	220
329.905	234
336.441	248
342.969	208
349.491	194
356.006	214
362.513	194
369.014	190
375.508	186
381.994	142
388.473	128
394.947	130
401.412	120
407.871	158
414.323	208
420.768	160
427.206	120
433.637	92
440.062	90
446.479	74
452.89	74
459.293	86
465.691	92
472.081	146
478.463	218
484.84	290
491.21	174
497.573	106
503.929	100
510.279	152
516.621	162
522.957	154
529.287	214
535.609	406
541.925	414
548.234	216
554.536	202
560.832	392
567.12	1422
573.403	1890
579.679	496
585.948	314
592.211	250
598.466	198
604.715	120
610.958	84
617.194	86
623.424	114
629.647	140
635.864	158
642.074	118
648.276	102
654.473	88
660.664	76
666.847	64
673.025	58
679.195	60
685.36	56
691.517	60
697.669	60
703.814	58
709.953	88
716.085	90
722.21	82
728.33	78
734.443	76
740.549	90
746.65	126
752.743	120
758.831	84
764.912	68
770.986	70
777.055	72
783.117	76
789.173	72
795.222	66
801.265	66
807.302	74
813.333	74
819.357	82
825.376	124
831.387	490
837.392	230
843.392	98
849.386	96
855.372	96
861.353	76
867.328	70
873.296	64
879.258	68
885.214	60
891.164	58
897.108	56
903.046	56
908.977	62
914.903	56
920.822	60
926.735	62
932.643	70
938.543	72
944.439	94
950.328	154
956.21	300
962.088	356
967.958	218
973.824	132
979.682	82
985.534	68
991.382	78
997.222	62
1003.06	60
1008.89	60
1014.71	66
1020.53	74
1026.34	76
1032.14	96
1037.94	96
1043.73	84
1049.52	74
1055.3	64
1061.08	66
1066.85	64
1072.61	68
1078.37	64
1084.12	66
1089.87	64
1095.61	64
1101.34	84
1107.07	136
1112.8	346
1118.51	152
1124.22	98
1129.93	86
1135.63	80
1141.32	84
1147.01	66
1152.69	70
1158.37	78
1164.04	90
1169.71	86
1175.37	92
1181.02	138
1186.67	238
1192.31	162
1197.95	160
1203.58	164
1209.2	124
1214.82	92
1220.44	96
1226.05	100
1231.65	130
1237.25	98
1242.84	92
1248.42	84
1254	84
1259.58	94
1265.15	84
1270.71	92
1276.27	114
1281.82	128
1287.37	148
1292.91	184
1298.45	322
1303.98	744
1309.5	502
1315.02	242
1320.53	182
1326.04	176
1331.54	170
1337.04	140
1342.53	142
1348.02	152
1353.5	164
1358.98	138
1364.45	150
1369.91	168
1375.37	320
1380.82	416
1386.27	260
1391.71	162
1397.15	132
1402.58	132
1408.01	146
1413.43	134
1418.85	158
1424.26	166
1429.66	184
1435.06	198
1440.46	198
1445.85	192
1451.23	166
1456.61	150
1461.98	150
1467.35	142
1472.71	146
1478.07	136
1483.42	134
1488.77	112
1494.11	114
1499.45	120
1504.78	106
1510.11	104
1515.43	108
1520.74	110
1526.05	92
1531.36	102
1536.66	106
1541.95	102
1547.24	106
1552.52	112
1557.8	112
1563.08	116
1568.35	118
1573.61	118
1578.87	130
1584.12	178
1589.37	226
1594.61	330
1599.85	440
1605.08	434
1610.31	336
1615.53	252
1620.75	156
1625.96	132
1631.17	104
1636.37	88
1641.57	102
1646.76	76
1651.95	96
1657.13	78
1662.31	78
1667.48	78
1672.65	84
1677.81	82
1682.97	82
1688.12	76
1693.27	78
1698.41	84
1702.26	72