File: Mixture_Classification/Jesse_Dataset_v2/Pure Raman/Polypropylene oxide/785nm/ps-ppo-6jan25-0,0000-map2_Y05_X07.txt
204.377	350
211.048	326
217.712	328
224.369	476
231.019	892
237.661	838
244.297	606
250.924	406
257.546	260
264.16	196
270.766	186
277.365	176
283.958	232
290.543	352
297.121	408
303.693	304
310.256	260
316.813	208
323.362	222
329.905	240
336.441	252
342.969	216
349.491	180
356.006	194
362.513	194
369.014	170
375.508	200
381.994	146
388.473	128
394.947	104
401.412	122
407.871	154
414.323	206
420.768	154
427.206	120
433.637	92
440.062	86
446.479	78
452.89	76
459.293	78
465.691	100
472.081	148
478.463	222
484.84	284
491.21	166
497.573	102
503.929	94
510.279	156
516.621	164
522.957	150
529.287	214
535.609	392
541.925	398
548.234	214
554.536	204
560.832	370
567.12	1420
573.403	1850
579.679	480
585.948	298
592.211	254
598.466	194
604.715	120
610.958	80
617.194	90
623.424	102
629.647	134
635.864	144
642.074	116
648.276	98
654.473	82
660.664	70
666.847	64
673.025	64
679.195	56
685.36	62
691.517	60
697.669	62
703.814	64
709.953	82
716.085	92
722.21	72
728.33	66
734.443	80
740.549	84
746.65	140
752.743	116
758.831	84
764.912	72
770.986	68
777.055	66
783.117	76
789.173	68
795.222	60
801.265	64
807.302	72
813.333	68
819.357	80
825.376	124
831.387	460
837.392	240
843.392	96
849.386	86
855.372	94
861.353	78
867.328	68
873.296	62
879.258	60
885.214	58
891.164	56
897.108	50
903.046	52
908.977	60
914.903	50
920.822	56
926.735	58
932.643	62
938.543	68
944.439	88
950.328	146
956.21	294
962.088	352
967.958	220
973.824	130
979.682	84
985.534	62
991.382	76
997.222	58
1003.06	56
1008.89	54
1014.71	66
1020.53	74
1026.34	82
1032.14	98
1037.94	96
1043.73	90
1049.52	72
1055.3	60
1061.08	58
1066.85	60
1072.61	60
1078.37	56
1084.12	66
1089.87	72
1095.61	66
1101.34	80
1107.07	140
1112.8	340
1118.51	152
1124.22	88
1129.93	84
1135.63	84
1141.32	84
1147.01	72
1152.69	66
1158.37	78
1164.04	80
1169.71	84
1175.37	94
1181.02	138
1186.67	232
1192.31	156
1197.95	142
1203.58	170
1209.2	124
1214.82	92
1220.44	84
1226.05	112
1231.65	130
1237.25	96
1242.84	80
1248.42	80
1254	78
1259.58	82
1265.15	98
1270.71	92
1276.27	98
1281.82	116
1287.37	136
1292.91	176
1298.45	338
1303.98	770
1309.5	496
1315.02	250
1320.53	186
1326.04	168
1331.54	166
1337.04	146
1342.53	144
1348.02	162
1353.5	142
1358.98	144
1364.45	144
1369.91	168
1375.37	316
1380.82	394
1386.27	276
1391.71	154
1397.15	132
1402.58	146
1408.01	122
1413.43	140
1418.85	160
1424.26	170
1429.66	172
1435.06	198
1440.46	202
1445.85	186
1451.23	162
1456.61	152
1461.98	152
1467.35	148
1472.71	134
1478.07	136
1483.42	136
1488.77	112
1494.11	122
1499.45	116
1504.78	108
1510.11	112
1515.43	110
1520.74	102
1526.05	98
1531.36	110
1536.66	106
1541.95	98
1547.24	96
1552.52	102
1557.8	108
1563.08	118
1568.35	108
1573.61	124
1578.87	140
1584.12	180
1589.37	220
1594.61	316
1599.85	430
1605.08	434
1610.31	328
1615.53	256
1620.75	158
1625.96	120
1631.17	106
1636.37	100
1641.57	90
1646.76	80
1651.95	84
1657.13	86
1662.31	78
1667.48	84
1672.65	74
1677.81	78
1682.97	76
1688.12	84
1693.27	74
1698.41	74
1702.26	70