File: Mixture_Classification/Jesse_Dataset_v2/Pure Raman/Polypropylene oxide/785nm/ps-ppo-6jan25-0,0000-map2_Y07_X09.txt
204.377	366
211.048	342
217.712	322
224.369	482
231.019	878
237.661	856
244.297	588
250.924	392
257.546	274
264.16	184
270.766	176
277.365	174
283.958	216
290.543	358
297.121	392
303.693	322
310.256	248
316.813	228
323.362	232
329.905	254
336.441	246
342.969	196
349.491	200
356.006	208
362.513	200
369.014	186
375.508	186
381.994	148
388.473	136
394.947	118
401.412	126
407.871	146
414.323	208
420.768	158
427.206	114
433.637	98
440.062	86
446.479	84
452.89	74
459.293	82
465.691	92
472.081	150
478.463	208
484.84	284
491.21	164
497.573	104
503.929	94
510.279	160
516.621	164
522.957	138
529.287	222
535.609	370
541.925	392
548.234	194
554.536	194
560.832	410
567.12	1380
573.403	1874
579.679	462
585.948	300
592.211	254
598.466	210
604.715	122
610.958	78
617.194	80
623.424	118
629.647	136
635.864	148
642.074	124
648.276	98
654.473	86
660.664	74
666.847	64
673.025	62
679.195	54
685.36	58
691.517	58
697.669	60
703.814	62
709.953	74
716.085	104
722.21	74
728.33	68
734.443	74
740.549	82
746.65	130
752.743	108
758.831	82
764.912	68
770.986	68
777.055	78
783.117	76
789.173	68
795.222	62
801.265	62
807.302	72
813.333	70
819.357	74
825.376	138
831.387	482
837.392	250
843.392	96
849.386	90
855.372	90
861.353	74
867.328	68
873.296	68
879.258	62
885.214	58
891.164	58
897.108	58
903.046	58
908.977	60
914.903	60
920.822	58
926.735	60
932.643	60
938.543	74
944.439	96
950.328	156
956.21	296
962.088	354
967.958	196
973.824	126
979.682	80
985.534	70
991.382	72
997.222	62
1003.06	62
1008.89	62
1014.71	66
1020.53	74
1026.34	76
1032.14	88
1037.94	98
1043.73	72
1049.52	64
1055.3	58
1061.08	62
1066.85	60
1072.61	64
1078.37	64
1084.12	60
1089.87	70
1095.61	72
1101.34	78
1107.07	136
1112.8	332
1118.51	142
1124.22	106
1129.93	76
1135.63	84
1141.32	84
1147.01	74
1152.69	68
1158.37	76
1164.04	84
1169.71	82
1175.37	94
1181.02	124
1186.67	226
1192.31	160
1197.95	156
1203.58	160
1209.2	130
1214.82	84
1220.44	88
1226.05	112
1231.65	132
1237.25	90
1242.84	86
1248.42	80
1254	80
1259.58	80
1265.15	90
1270.71	96
1276.27	100
1281.82	124
1287.37	146
1292.91	186
1298.45	332
1303.98	742
1309.5	504
1315.02	240
1320.53	200
1326.04	168
1331.54	170
1337.04	148
1342.53	152
1348.02	150
1353.5	156
1358.98	146
1364.45	142
1369.91	168
1375.37	310
1380.82	392
1386.27	258
1391.71	148
1397.15	126
1402.58	132
1408.01	132
1413.43	134
1418.85	142
1424.26	176
1429.66	180
1435.06	194
1440.46	206
1445.85	180
1451.23	172
1456.61	146
1461.98	158
1467.35	150
1472.71	146
1478.07	144
1483.42	124
1488.77	114
1494.11	116
1499.45	114
1504.78	112
1510.11	100
1515.43	94
1520.74	116
1526.05	108
1531.36	96
1536.66	108
1541.95	106
1547.24	104
1552.52	102
1557.8	110
1563.08	114
1568.35	108
1573.61	114
1578.87	140
1584.12	170
1589.37	222
1594.61	328
1599.85	460
1605.08	436
1610.31	330
1615.53	246
1620.75	158
1625.96	118
1631.17	110
1636.37	100
1641.57	84
1646.76	90
1651.95	82
1657.13	80
1662.31	88
1667.48	68
1672.65	70
1677.81	76
1682.97	76
1688.12	86
1693.27	78
1698.41	74
1702.26	76