File: Mixture_Classification/Jesse_Dataset_v2/Pure Raman/Polypropylene oxide/785nm/ps-ppo-6jan25-0,0000-map2_Y10_X07.txt
204.377	364
211.048	304
217.712	310
224.369	426
231.019	802
237.661	756
244.297	550
250.924	360
257.546	238
264.16	186
270.766	160
277.365	174
283.958	210
290.543	340
297.121	382
303.693	274
310.256	224
316.813	214
323.362	212
329.905	216
336.441	238
342.969	190
349.491	186
356.006	196
362.513	178
369.014	178
375.508	166
381.994	132
388.473	128
394.947	116
401.412	114
407.871	132
414.323	188
420.768	142
427.206	110
433.637	86
440.062	78
446.479	72
452.89	72
459.293	74
465.691	94
472.081	134
478.463	210
484.84	264
491.21	150
497.573	110
503.929	94
510.279	138
516.621	150
522.957	150
529.287	206
535.609	374
541.925	356
548.234	204
554.536	190
560.832	366
567.12	1310
573.403	1704
579.679	438
585.948	296
592.211	226
598.466	174
604.715	108
610.958	90
617.194	78
623.424	96
629.647	124
635.864	132
642.074	116
648.276	108
654.473	80
660.664	66
666.847	58
673.025	54
679.195	58
685.36	56
691.517	56
697.669	60
703.814	56
709.953	64
716.085	98
722.21	70
728.33	66
734.443	76
740.549	86
746.65	128
752.743	112
758.831	74
764.912	64
770.986	68
777.055	68
783.117	66
789.173	64
795.222	58
801.265	64
807.302	60
813.333	70
819.357	78
825.376	122
831.387	416
837.392	218
843.392	100
849.386	82
855.372	86
861.353	70
867.328	62
873.296	60
879.258	58
885.214	56
891.164	58
897.108	56
903.046	54
908.977	52
914.903	52
920.822	54
926.735	60
932.643	60
938.543	66
944.439	90
950.328	140
956.21	280
962.088	312
967.958	210
973.824	132
979.682	78
985.534	74
991.382	76
997.222	54
1003.06	62
1008.89	58
1014.71	66
1020.53	64
1026.34	84
1032.14	94
1037.94	86
1043.73	76
1049.52	74
1055.3	62
1061.08	62
1066.85	62
1072.61	62
1078.37	62
1084.12	62
1089.87	68
1095.61	62
1101.34	78
1107.07	122
1112.8	322
1118.51	130
1124.22	92
1129.93	82
1135.63	82
1141.32	88
1147.01	66
1152.69	74
1158.37	86
1164.04	86
1169.71	84
1175.37	86
1181.02	134
1186.67	218
1192.31	142
1197.95	150
1203.58	172
1209.2	124
1214.82	92
1220.44	86
1226.05	100
1231.65	130
1237.25	90
1242.84	80
1248.42	84
1254	74
1259.58	90
1265.15	92
1270.71	86
1276.27	96
1281.82	110
1287.37	140
1292.91	178
1298.45	294
1303.98	662
1309.5	448
1315.02	238
1320.53	184
1326.04	174
1331.54	154
1337.04	126
1342.53	140
1348.02	140
1353.5	150
1358.98	128
1364.45	136
1369.91	154
1375.37	316
1380.82	370
1386.27	234
1391.71	138
1397.15	122
1402.58	130
1408.01	132
1413.43	124
1418.85	146
1424.26	150
1429.66	176
1435.06	186
1440.46	192
1445.85	180
1451.23	164
1456.61	134
1461.98	148
1467.35	146
1472.71	146
1478.07	140
1483.42	134
1488.77	112
1494.11	112
1499.45	102
1504.78	92
1510.11	104
1515.43	104
1520.74	96
1526.05	100
1531.36	102
1536.66	94
1541.95	102
1547.24	94
1552.52	102
1557.8	104
1563.08	100
1568.35	112
1573.61	118
1578.87	132
1584.12	160
1589.37	210
1594.61	302
1599.85	388
1605.08	414
1610.31	290
1615.53	222
1620.75	134
1625.96	112
1631.17	96
1636.37	86
1641.57	90
1646.76	78
1651.95	86
1657.13	74
1662.31	74
1667.48	78
1672.65	70
1677.81	72
1682.97	74
1688.12	76
1693.27	76
1698.41	78
1702.26	66