File: Mixture_Classification/Jesse_Dataset_v2/Pure Raman/Polypropylene oxide/785nm/ps-ppo-6jan25-0,0000-map2_Y10_X09.txt
204.377	376
211.048	316
217.712	322
224.369	470
231.019	888
237.661	878
244.297	606
250.924	388
257.546	260
264.16	200
270.766	168
277.365	184
283.958	222
290.543	380
297.121	436
303.693	312
310.256	258
316.813	232
323.362	222
329.905	254
336.441	236
342.969	212
349.491	196
356.006	212
362.513	182
369.014	190
375.508	180
381.994	140
388.473	112
394.947	124
401.412	132
407.871	164
414.323	210
420.768	156
427.206	110
433.637	96
440.062	84
446.479	78
452.89	80
459.293	74
465.691	100
472.081	164
478.463	222
484.84	288
491.21	168
497.573	110
503.929	92
510.279	168
516.621	166
522.957	162
529.287	228
535.609	394
541.925	414
548.234	216
554.536	208
560.832	398
567.12	1426
573.403	1890
579.679	504
585.948	310
592.211	248
598.466	198
604.715	112
610.958	90
617.194	86
623.424	108
629.647	134
635.864	144
642.074	128
648.276	100
654.473	82
660.664	70
666.847	66
673.025	70
679.195	60
685.36	64
691.517	58
697.669	50
703.814	58
709.953	80
716.085	92
722.21	78
728.33	76
734.443	80
740.549	84
746.65	140
752.743	112
758.831	88
764.912	68
770.986	68
777.055	78
783.117	78
789.173	72
795.222	62
801.265	60
807.302	68
813.333	72
819.357	86
825.376	130
831.387	480
837.392	236
843.392	90
849.386	90
855.372	84
861.353	82
867.328	72
873.296	60
879.258	66
885.214	62
891.164	54
897.108	54
903.046	56
908.977	56
914.903	56
920.822	56
926.735	60
932.643	66
938.543	76
944.439	88
950.328	144
956.21	282
962.088	344
967.958	222
973.824	120
979.682	88
985.534	72
991.382	72
997.222	68
1003.06	64
1008.89	58
1014.71	60
1020.53	76
1026.34	82
1032.14	94
1037.94	90
1043.73	78
1049.52	70
1055.3	62
1061.08	64
1066.85	62
1072.61	62
1078.37	66
1084.12	66
1089.87	60
1095.61	64
1101.34	78
1107.07	136
1112.8	342
1118.51	146
1124.22	102
1129.93	84
1135.63	88
1141.32	84
1147.01	66
1152.69	66
1158.37	88
1164.04	82
1169.71	80
1175.37	98
1181.02	142
1186.67	228
1192.31	162
1197.95	158
1203.58	162
1209.2	118
1214.82	84
1220.44	90
1226.05	108
1231.65	120
1237.25	98
1242.84	78
1248.42	88
1254	86
1259.58	86
1265.15	92
1270.71	86
1276.27	112
1281.82	116
1287.37	144
1292.91	192
1298.45	310
1303.98	714
1309.5	506
1315.02	254
1320.53	208
1326.04	174
1331.54	160
1337.04	138
1342.53	140
1348.02	162
1353.5	162
1358.98	152
1364.45	146
1369.91	182
1375.37	338
1380.82	402
1386.27	270
1391.71	138
1397.15	138
1402.58	132
1408.01	120
1413.43	142
1418.85	158
1424.26	156
1429.66	170
1435.06	186
1440.46	212
1445.85	196
1451.23	160
1456.61	158
1461.98	160
1467.35	138
1472.71	142
1478.07	150
1483.42	122
1488.77	124
1494.11	116
1499.45	108
1504.78	110
1510.11	116
1515.43	108
1520.74	102
1526.05	98
1531.36	108
1536.66	100
1541.95	102
1547.24	102
1552.52	102
1557.8	112
1563.08	112
1568.35	100
1573.61	130
1578.87	138
1584.12	164
1589.37	232
1594.61	332
1599.85	432
1605.08	448
1610.31	334
1615.53	244
1620.75	166
1625.96	122
1631.17	92
1636.37	94
1641.57	84
1646.76	90
1651.95	78
1657.13	84
1662.31	74
1667.48	80
1672.65	68
1677.81	76
1682.97	74
1688.12	78
1693.27	80
1698.41	78
1702.26	78