File: Mixture_Classification/Jesse_Dataset_v2/Pure Raman/Polypropylene oxide/785nm/ps-ppo-6jan25-0,0000-map2_Y04_X03.txt
204.377	392
211.048	332
217.712	342
224.369	484
231.019	882
237.661	914
244.297	636
250.924	386
257.546	266
264.16	208
270.766	170
277.365	182
283.958	214
290.543	374
297.121	438
303.693	332
310.256	274
316.813	238
323.362	236
329.905	244
336.441	262
342.969	222
349.491	204
356.006	208
362.513	188
369.014	210
375.508	192
381.994	160
388.473	144
394.947	124
401.412	132
407.871	156
414.323	218
420.768	170
427.206	120
433.637	96
440.062	80
446.479	80
452.89	80
459.293	88
465.691	100
472.081	160
478.463	218
484.84	302
491.21	172
497.573	108
503.929	108
510.279	156
516.621	182
522.957	160
529.287	232
535.609	408
541.925	414
548.234	218
554.536	212
560.832	386
567.12	1446
573.403	1974
579.679	488
585.948	326
592.211	250
598.466	198
604.715	120
610.958	92
617.194	86
623.424	116
629.647	134
635.864	148
642.074	124
648.276	106
654.473	74
660.664	76
666.847	60
673.025	66
679.195	66
685.36	60
691.517	62
697.669	64
703.814	60
709.953	78
716.085	98
722.21	84
728.33	70
734.443	74
740.549	88
746.65	148
752.743	124
758.831	82
764.912	70
770.986	68
777.055	78
783.117	72
789.173	70
795.222	58
801.265	68
807.302	74
813.333	78
819.357	90
825.376	132
831.387	478
837.392	222
843.392	104
849.386	102
855.372	82
861.353	86
867.328	72
873.296	68
879.258	62
885.214	60
891.164	64
897.108	58
903.046	56
908.977	56
914.903	56
920.822	62
926.735	64
932.643	56
938.543	76
944.439	86
950.328	142
956.21	298
962.088	354
967.958	220
973.824	130
979.682	78
985.534	74
991.382	84
997.222	64
1003.06	60
1008.89	62
1014.71	70
1020.53	74
1026.34	88
1032.14	90
1037.94	98
1043.73	88
1049.52	72
1055.3	70
1061.08	72
1066.85	70
1072.61	62
1078.37	66
1084.12	68
1089.87	64
1095.61	72
1101.34	82
1107.07	128
1112.8	346
1118.51	154
1124.22	98
1129.93	86
1135.63	80
1141.32	84
1147.01	78
1152.69	76
1158.37	86
1164.04	94
1169.71	82
1175.37	96
1181.02	142
1186.67	230
1192.31	170
1197.95	152
1203.58	160
1209.2	130
1214.82	94
1220.44	88
1226.05	104
1231.65	132
1237.25	96
1242.84	88
1248.42	92
1254	84
1259.58	86
1265.15	98
1270.71	106
1276.27	104
1281.82	120
1287.37	162
1292.91	190
1298.45	330
1303.98	732
1309.5	508
1315.02	278
1320.53	182
1326.04	190
1331.54	170
1337.04	150
1342.53	150
1348.02	176
1353.5	164
1358.98	152
1364.45	148
1369.91	176
1375.37	324
1380.82	424
1386.27	274
1391.71	160
1397.15	148
1402.58	134
1408.01	134
1413.43	132
1418.85	162
1424.26	188
1429.66	184
1435.06	202
1440.46	214
1445.85	176
1451.23	158
1456.61	146
1461.98	152
1467.35	144
1472.71	144
1478.07	144
1483.42	134
1488.77	128
1494.11	134
1499.45	124
1504.78	118
1510.11	110
1515.43	108
1520.74	104
1526.05	116
1531.36	108
1536.66	108
1541.95	106
1547.24	106
1552.52	114
1557.8	116
1563.08	106
1568.35	112
1573.61	122
1578.87	140
1584.12	166
1589.37	230
1594.61	350
1599.85	446
1605.08	452
1610.31	356
1615.53	248
1620.75	170
1625.96	124
1631.17	112
1636.37	94
1641.57	82
1646.76	92
1651.95	80
1657.13	76
1662.31	80
1667.48	82
1672.65	84
1677.81	86
1682.97	82
1688.12	90
1693.27	86
1698.41	74
1702.26	72