File: Mixture_Classification/Jesse_Dataset_v2/Pure Raman/Polypropylene oxide/785nm/ps-ppo-6jan25-0,0000-map2_Y09_X05.txt
204.377	346
211.048	300
217.712	310
224.369	442
231.019	824
237.661	842
244.297	594
250.924	376
257.546	244
264.16	200
270.766	164
277.365	170
283.958	214
290.543	330
297.121	408
303.693	284
310.256	242
316.813	210
323.362	210
329.905	222
336.441	234
342.969	204
349.491	200
356.006	196
362.513	168
369.014	184
375.508	172
381.994	144
388.473	136
394.947	122
401.412	128
407.871	148
414.323	196
420.768	150
427.206	104
433.637	88
440.062	88
446.479	78
452.89	76
459.293	70
465.691	100
472.081	142
478.463	212
484.84	272
491.21	152
497.573	102
503.929	94
510.279	146
516.621	154
522.957	154
529.287	214
535.609	376
541.925	386
548.234	200
554.536	192
560.832	352
567.12	1258
573.403	1792
579.679	464
585.948	292
592.211	236
598.466	194
604.715	114
610.958	78
617.194	82
623.424	106
629.647	132
635.864	144
642.074	116
648.276	98
654.473	68
660.664	72
666.847	58
673.025	62
679.195	52
685.36	56
691.517	62
697.669	54
703.814	54
709.953	74
716.085	90
722.21	72
728.33	72
734.443	74
740.549	90
746.65	130
752.743	114
758.831	84
764.912	68
770.986	62
777.055	66
783.117	74
789.173	64
795.222	58
801.265	68
807.302	68
813.333	60
819.357	70
825.376	136
831.387	456
837.392	224
843.392	98
849.386	88
855.372	88
861.353	80
867.328	64
873.296	62
879.258	58
885.214	56
891.164	58
897.108	56
903.046	50
908.977	54
914.903	52
920.822	52
926.735	56
932.643	62
938.543	66
944.439	80
950.328	140
956.21	278
962.088	326
967.958	202
973.824	118
979.682	84
985.534	72
991.382	74
997.222	62
1003.06	56
1008.89	60
1014.71	66
1020.53	70
1026.34	84
1032.14	94
1037.94	80
1043.73	76
1049.52	64
1055.3	66
1061.08	60
1066.85	56
1072.61	60
1078.37	56
1084.12	66
1089.87	66
1095.61	70
1101.34	74
1107.07	134
1112.8	326
1118.51	152
1124.22	88
1129.93	78
1135.63	76
1141.32	80
1147.01	72
1152.69	74
1158.37	86
1164.04	86
1169.71	82
1175.37	88
1181.02	128
1186.67	222
1192.31	146
1197.95	144
1203.58	162
1209.2	120
1214.82	80
1220.44	88
1226.05	102
1231.65	124
1237.25	96
1242.84	74
1248.42	82
1254	70
1259.58	80
1265.15	88
1270.71	82
1276.27	102
1281.82	122
1287.37	146
1292.91	160
1298.45	312
1303.98	654
1309.5	450
1315.02	242
1320.53	192
1326.04	162
1331.54	154
1337.04	138
1342.53	134
1348.02	164
1353.5	146
1358.98	142
1364.45	132
1369.91	162
1375.37	316
1380.82	386
1386.27	238
1391.71	140
1397.15	124
1402.58	128
1408.01	134
1413.43	138
1418.85	160
1424.26	150
1429.66	174
1435.06	184
1440.46	198
1445.85	182
1451.23	154
1456.61	138
1461.98	138
1467.35	136
1472.71	142
1478.07	136
1483.42	116
1488.77	118
1494.11	104
1499.45	104
1504.78	106
1510.11	106
1515.43	94
1520.74	96
1526.05	110
1531.36	100
1536.66	100
1541.95	102
1547.24	100
1552.52	98
1557.8	98
1563.08	102
1568.35	108
1573.61	134
1578.87	128
1584.12	162
1589.37	212
1594.61	288
1599.85	398
1605.08	412
1610.31	318
1615.53	224
1620.75	152
1625.96	114
1631.17	100
1636.37	102
1641.57	92
1646.76	90
1651.95	82
1657.13	80
1662.31	86
1667.48	76
1672.65	70
1677.81	70
1682.97	72
1688.12	80
1693.27	74
1698.41	74
1702.26	72