File: Mixture_Classification/Jesse_Dataset_v2/Pure Raman/Polypropylene oxide/785nm/ps-ppo-6jan25-0,0000-map2_Y01_X10.txt
204.377	388
211.048	338
217.712	348
224.369	472
231.019	872
237.661	902
244.297	652
250.924	426
257.546	274
264.16	212
270.766	172
277.365	180
283.958	246
290.543	376
297.121	442
303.693	336
310.256	272
316.813	234
323.362	240
329.905	264
336.441	260
342.969	210
349.491	210
356.006	218
362.513	188
369.014	198
375.508	192
381.994	162
388.473	146
394.947	128
401.412	132
407.871	152
414.323	218
420.768	178
427.206	130
433.637	108
440.062	94
446.479	82
452.89	86
459.293	98
465.691	94
472.081	146
478.463	234
484.84	302
491.21	170
497.573	114
503.929	112
510.279	166
516.621	186
522.957	174
529.287	238
535.609	420
541.925	412
548.234	216
554.536	212
560.832	416
567.12	1458
573.403	2008
579.679	490
585.948	332
592.211	276
598.466	206
604.715	128
610.958	94
617.194	98
623.424	108
629.647	132
635.864	152
642.074	132
648.276	98
654.473	88
660.664	78
666.847	72
673.025	64
679.195	64
685.36	72
691.517	56
697.669	62
703.814	66
709.953	86
716.085	94
722.21	72
728.33	76
734.443	82
740.549	98
746.65	144
752.743	130
758.831	94
764.912	68
770.986	64
777.055	84
783.117	80
789.173	72
795.222	60
801.265	60
807.302	78
813.333	66
819.357	86
825.376	138
831.387	484
837.392	252
843.392	110
849.386	104
855.372	84
861.353	82
867.328	68
873.296	70
879.258	62
885.214	56
891.164	56
897.108	62
903.046	54
908.977	58
914.903	58
920.822	62
926.735	62
932.643	64
938.543	76
944.439	90
950.328	146
956.21	298
962.088	376
967.958	230
973.824	138
979.682	94
985.534	68
991.382	78
997.222	60
1003.06	64
1008.89	64
1014.71	62
1020.53	82
1026.34	80
1032.14	100
1037.94	96
1043.73	86
1049.52	68
1055.3	68
1061.08	62
1066.85	64
1072.61	56
1078.37	62
1084.12	70
1089.87	68
1095.61	74
1101.34	78
1107.07	148
1112.8	370
1118.51	154
1124.22	106
1129.93	88
1135.63	84
1141.32	92
1147.01	80
1152.69	72
1158.37	92
1164.04	92
1169.71	86
1175.37	106
1181.02	140
1186.67	250
1192.31	172
1197.95	160
1203.58	168
1209.2	126
1214.82	88
1220.44	92
1226.05	114
1231.65	126
1237.25	98
1242.84	86
1248.42	86
1254	82
1259.58	88
1265.15	98
1270.71	94
1276.27	112
1281.82	134
1287.37	148
1292.91	184
1298.45	344
1303.98	740
1309.5	526
1315.02	270
1320.53	202
1326.04	180
1331.54	168
1337.04	150
1342.53	154
1348.02	168
1353.5	152
1358.98	136
1364.45	150
1369.91	168
1375.37	342
1380.82	416
1386.27	272
1391.71	156
1397.15	150
1402.58	136
1408.01	132
1413.43	130
1418.85	162
1424.26	182
1429.66	190
1435.06	210
1440.46	214
1445.85	192
1451.23	180
1456.61	166
1461.98	158
1467.35	152
1472.71	152
1478.07	138
1483.42	128
1488.77	120
1494.11	122
1499.45	112
1504.78	128
1510.11	108
1515.43	112
1520.74	116
1526.05	116
1531.36	104
1536.66	116
1541.95	104
1547.24	110
1552.52	108
1557.8	106
1563.08	114
1568.35	124
1573.61	124
1578.87	156
1584.12	170
1589.37	234
1594.61	348
1599.85	454
1605.08	458
1610.31	352
1615.53	262
1620.75	162
1625.96	128
1631.17	116
1636.37	98
1641.57	92
1646.76	92
1651.95	84
1657.13	84
1662.31	84
1667.48	82
1672.65	78
1677.81	78
1682.97	84
1688.12	78
1693.27	80
1698.41	88
1702.26	80