File: Mixture_Classification/Jesse_Dataset_v2/Pure Raman/Polypropylene oxide/785nm/ps-ppo-6jan25-0,0000-map2_Y00_X01.txt
204.377	402
211.048	348
217.712	342
224.369	502
231.019	902
237.661	956
244.297	632
250.924	426
257.546	260
264.16	210
270.766	186
277.365	192
283.958	238
290.543	374
297.121	466
303.693	338
310.256	274
316.813	248
323.362	246
329.905	264
336.441	278
342.969	222
349.491	224
356.006	234
362.513	192
369.014	200
375.508	200
381.994	156
388.473	148
394.947	130
401.412	144
407.871	152
414.323	218
420.768	166
427.206	122
433.637	108
440.062	94
446.479	82
452.89	84
459.293	88
465.691	108
472.081	148
478.463	240
484.84	300
491.21	184
497.573	114
503.929	106
510.279	156
516.621	180
522.957	160
529.287	240
535.609	420
541.925	442
548.234	236
554.536	208
560.832	414
567.12	1518
573.403	2028
579.679	522
585.948	328
592.211	266
598.466	220
604.715	124
610.958	92
617.194	100
623.424	116
629.647	130
635.864	152
642.074	132
648.276	114
654.473	88
660.664	80
666.847	72
673.025	58
679.195	60
685.36	56
691.517	64
697.669	62
703.814	66
709.953	82
716.085	106
722.21	76
728.33	74
734.443	86
740.549	102
746.65	142
752.743	134
758.831	100
764.912	68
770.986	76
777.055	80
783.117	76
789.173	66
795.222	66
801.265	70
807.302	76
813.333	70
819.357	92
825.376	130
831.387	488
837.392	258
843.392	104
849.386	106
855.372	88
861.353	92
867.328	76
873.296	72
879.258	64
885.214	68
891.164	62
897.108	62
903.046	64
908.977	62
914.903	58
920.822	64
926.735	58
932.643	64
938.543	82
944.439	94
950.328	148
956.21	304
962.088	368
967.958	242
973.824	134
979.682	78
985.534	66
991.382	80
997.222	64
1003.06	62
1008.89	64
1014.71	62
1020.53	84
1026.34	94
1032.14	114
1037.94	100
1043.73	96
1049.52	74
1055.3	68
1061.08	62
1066.85	70
1072.61	66
1078.37	68
1084.12	64
1089.87	62
1095.61	72
1101.34	78
1107.07	144
1112.8	386
1118.51	164
1124.22	108
1129.93	86
1135.63	86
1141.32	98
1147.01	82
1152.69	78
1158.37	92
1164.04	102
1169.71	88
1175.37	106
1181.02	146
1186.67	256
1192.31	180
1197.95	158
1203.58	180
1209.2	126
1214.82	100
1220.44	98
1226.05	120
1231.65	140
1237.25	102
1242.84	86
1248.42	84
1254	86
1259.58	94
1265.15	108
1270.71	98
1276.27	110
1281.82	122
1287.37	158
1292.91	192
1298.45	356
1303.98	790
1309.5	536
1315.02	272
1320.53	186
1326.04	182
1331.54	182
1337.04	152
1342.53	164
1348.02	160
1353.5	168
1358.98	154
1364.45	146
1369.91	178
1375.37	344
1380.82	456
1386.27	282
1391.71	168
1397.15	162
1402.58	132
1408.01	128
1413.43	142
1418.85	168
1424.26	186
1429.66	194
1435.06	204
1440.46	240
1445.85	202
1451.23	176
1456.61	160
1461.98	168
1467.35	154
1472.71	152
1478.07	154
1483.42	154
1488.77	132
1494.11	124
1499.45	114
1504.78	118
1510.11	118
1515.43	116
1520.74	108
1526.05	114
1531.36	108
1536.66	118
1541.95	112
1547.24	116
1552.52	110
1557.8	116
1563.08	120
1568.35	124
1573.61	124
1578.87	164
1584.12	186
1589.37	244
1594.61	364
1599.85	484
1605.08	478
1610.31	364
1615.53	260
1620.75	182
1625.96	134
1631.17	108
1636.37	100
1641.57	104
1646.76	84
1651.95	88
1657.13	88
1662.31	84
1667.48	88
1672.65	78
1677.81	78
1682.97	80
1688.12	80
1693.27	84
1698.41	78
1702.26	82