File: Mixture_Classification/Jesse_Dataset_v2/Pure Raman/Polypropylene oxide/785nm/ps-ppo-6jan25-0,0000-map2_Y00_X00.txt
204.377	390
211.048	352
217.712	364
224.369	504
231.019	896
237.661	956
244.297	650
250.924	432
257.546	282
264.16	202
270.766	188
277.365	194
283.958	232
290.543	390
297.121	458
303.693	358
310.256	260
316.813	258
323.362	240
329.905	264
336.441	276
342.969	218
349.491	216
356.006	236
362.513	214
369.014	208
375.508	190
381.994	162
388.473	140
394.947	138
401.412	132
407.871	160
414.323	232
420.768	182
427.206	124
433.637	108
440.062	78
446.479	86
452.89	82
459.293	86
465.691	102
472.081	160
478.463	224
484.84	306
491.21	178
497.573	122
503.929	104
510.279	166
516.621	186
522.957	152
529.287	246
535.609	446
541.925	434
548.234	230
554.536	216
560.832	408
567.12	1484
573.403	2048
579.679	536
585.948	348
592.211	276
598.466	216
604.715	128
610.958	112
617.194	102
623.424	114
629.647	144
635.864	160
642.074	132
648.276	108
654.473	92
660.664	80
666.847	68
673.025	66
679.195	64
685.36	60
691.517	66
697.669	56
703.814	72
709.953	80
716.085	104
722.21	80
728.33	84
734.443	86
740.549	102
746.65	154
752.743	126
758.831	102
764.912	74
770.986	76
777.055	86
783.117	86
789.173	76
795.222	72
801.265	74
807.302	80
813.333	78
819.357	86
825.376	144
831.387	500
837.392	270
843.392	104
849.386	110
855.372	94
861.353	76
867.328	72
873.296	58
879.258	74
885.214	64
891.164	62
897.108	62
903.046	64
908.977	66
914.903	60
920.822	62
926.735	64
932.643	66
938.543	76
944.439	96
950.328	154
956.21	308
962.088	368
967.958	238
973.824	152
979.682	96
985.534	80
991.382	88
997.222	70
1003.06	64
1008.89	66
1014.71	70
1020.53	78
1026.34	84
1032.14	104
1037.94	106
1043.73	92
1049.52	76
1055.3	68
1061.08	70
1066.85	64
1072.61	64
1078.37	70
1084.12	78
1089.87	70
1095.61	70
1101.34	84
1107.07	160
1112.8	374
1118.51	164
1124.22	108
1129.93	90
1135.63	76
1141.32	92
1147.01	84
1152.69	80
1158.37	78
1164.04	108
1169.71	92
1175.37	100
1181.02	152
1186.67	260
1192.31	182
1197.95	154
1203.58	182
1209.2	138
1214.82	96
1220.44	102
1226.05	126
1231.65	140
1237.25	98
1242.84	92
1248.42	84
1254	92
1259.58	88
1265.15	100
1270.71	104
1276.27	126
1281.82	128
1287.37	164
1292.91	196
1298.45	362
1303.98	782
1309.5	550
1315.02	266
1320.53	202
1326.04	186
1331.54	176
1337.04	146
1342.53	160
1348.02	184
1353.5	192
1358.98	162
1364.45	148
1369.91	194
1375.37	354
1380.82	456
1386.27	286
1391.71	172
1397.15	148
1402.58	146
1408.01	140
1413.43	148
1418.85	174
1424.26	196
1429.66	192
1435.06	216
1440.46	228
1445.85	196
1451.23	168
1456.61	180
1461.98	162
1467.35	156
1472.71	150
1478.07	146
1483.42	152
1488.77	134
1494.11	126
1499.45	112
1504.78	120
1510.11	128
1515.43	110
1520.74	114
1526.05	112
1531.36	116
1536.66	118
1541.95	114
1547.24	110
1552.52	114
1557.8	122
1563.08	118
1568.35	130
1573.61	132
1578.87	152
1584.12	182
1589.37	256
1594.61	350
1599.85	468
1605.08	476
1610.31	360
1615.53	260
1620.75	178
1625.96	130
1631.17	120
1636.37	106
1641.57	88
1646.76	90
1651.95	94
1657.13	90
1662.31	94
1667.48	84
1672.65	84
1677.81	72
1682.97	90
1688.12	86
1693.27	86
1698.41	82
1702.26	78