File: Mixture_Classification/Jesse_Dataset_v2/Pure Raman/Polypropylene oxide/785nm/ps-ppo-6jan25-0,0000-map2_Y04_X02.txt
204.377	360
211.048	340
217.712	352
224.369	494
231.019	922
237.661	892
244.297	636
250.924	406
257.546	278
264.16	212
270.766	170
277.365	190
283.958	234
290.543	378
297.121	424
303.693	314
310.256	264
316.813	230
323.362	224
329.905	254
336.441	254
342.969	212
349.491	224
356.006	210
362.513	192
369.014	188
375.508	188
381.994	154
388.473	138
394.947	128
401.412	122
407.871	150
414.323	218
420.768	170
427.206	124
433.637	96
440.062	94
446.479	86
452.89	78
459.293	88
465.691	108
472.081	156
478.463	238
484.84	302
491.21	172
497.573	112
503.929	92
510.279	166
516.621	172
522.957	164
529.287	224
535.609	414
541.925	396
548.234	220
554.536	210
560.832	402
567.12	1372
573.403	1938
579.679	488
585.948	318
592.211	262
598.466	206
604.715	124
610.958	92
617.194	82
623.424	118
629.647	128
635.864	152
642.074	126
648.276	92
654.473	86
660.664	80
666.847	64
673.025	60
679.195	60
685.36	60
691.517	60
697.669	60
703.814	62
709.953	78
716.085	100
722.21	82
728.33	78
734.443	74
740.549	92
746.65	142
752.743	116
758.831	88
764.912	72
770.986	68
777.055	76
783.117	76
789.173	70
795.222	62
801.265	68
807.302	80
813.333	74
819.357	86
825.376	128
831.387	486
837.392	262
843.392	94
849.386	88
855.372	86
861.353	70
867.328	68
873.296	62
879.258	60
885.214	62
891.164	54
897.108	52
903.046	62
908.977	54
914.903	56
920.822	56
926.735	62
932.643	62
938.543	78
944.439	94
950.328	146
956.21	290
962.088	352
967.958	232
973.824	136
979.682	86
985.534	68
991.382	74
997.222	60
1003.06	66
1008.89	66
1014.71	70
1020.53	84
1026.34	92
1032.14	96
1037.94	94
1043.73	88
1049.52	74
1055.3	60
1061.08	62
1066.85	62
1072.61	62
1078.37	64
1084.12	64
1089.87	70
1095.61	70
1101.34	76
1107.07	142
1112.8	362
1118.51	162
1124.22	96
1129.93	86
1135.63	88
1141.32	84
1147.01	80
1152.69	68
1158.37	76
1164.04	94
1169.71	86
1175.37	94
1181.02	128
1186.67	242
1192.31	150
1197.95	158
1203.58	170
1209.2	138
1214.82	98
1220.44	92
1226.05	110
1231.65	132
1237.25	106
1242.84	80
1248.42	90
1254	90
1259.58	76
1265.15	88
1270.71	96
1276.27	100
1281.82	122
1287.37	146
1292.91	204
1298.45	354
1303.98	742
1309.5	526
1315.02	264
1320.53	194
1326.04	172
1331.54	186
1337.04	142
1342.53	158
1348.02	166
1353.5	162
1358.98	152
1364.45	160
1369.91	182
1375.37	332
1380.82	414
1386.27	262
1391.71	174
1397.15	142
1402.58	142
1408.01	142
1413.43	142
1418.85	164
1424.26	188
1429.66	192
1435.06	192
1440.46	208
1445.85	204
1451.23	186
1456.61	168
1461.98	166
1467.35	148
1472.71	150
1478.07	152
1483.42	140
1488.77	120
1494.11	120
1499.45	122
1504.78	120
1510.11	110
1515.43	118
1520.74	106
1526.05	112
1531.36	100
1536.66	110
1541.95	106
1547.24	104
1552.52	104
1557.8	106
1563.08	110
1568.35	116
1573.61	128
1578.87	146
1584.12	180
1589.37	236
1594.61	356
1599.85	462
1605.08	472
1610.31	358
1615.53	254
1620.75	166
1625.96	124
1631.17	106
1636.37	100
1641.57	86
1646.76	88
1651.95	80
1657.13	70
1662.31	78
1667.48	86
1672.65	84
1677.81	74
1682.97	72
1688.12	82
1693.27	84
1698.41	78
1702.26	72