File: Mixture_Classification/Jesse_Dataset_v2/Pure Raman/Polypropylene oxide/785nm/ps-ppo-6jan25-0,0000-map2_Y06_X10.txt
204.377	384
211.048	354
217.712	346
224.369	488
231.019	914
237.661	958
244.297	624
250.924	408
257.546	286
264.16	198
270.766	172
277.365	182
283.958	254
290.543	364
297.121	444
303.693	332
310.256	258
316.813	224
323.362	234
329.905	254
336.441	264
342.969	222
349.491	216
356.006	228
362.513	204
369.014	184
375.508	206
381.994	148
388.473	134
394.947	122
401.412	122
407.871	162
414.323	208
420.768	158
427.206	124
433.637	94
440.062	86
446.479	78
452.89	74
459.293	90
465.691	108
472.081	156
478.463	226
484.84	308
491.21	174
497.573	120
503.929	104
510.279	168
516.621	176
522.957	154
529.287	218
535.609	410
541.925	402
548.234	224
554.536	214
560.832	418
567.12	1482
573.403	2000
579.679	492
585.948	340
592.211	280
598.466	206
604.715	132
610.958	90
617.194	92
623.424	112
629.647	136
635.864	148
642.074	118
648.276	98
654.473	90
660.664	78
666.847	64
673.025	68
679.195	60
685.36	68
691.517	60
697.669	58
703.814	68
709.953	82
716.085	110
722.21	82
728.33	80
734.443	84
740.549	96
746.65	146
752.743	120
758.831	92
764.912	70
770.986	70
777.055	80
783.117	86
789.173	68
795.222	72
801.265	66
807.302	84
813.333	72
819.357	78
825.376	144
831.387	494
837.392	260
843.392	114
849.386	96
855.372	84
861.353	82
867.328	66
873.296	62
879.258	70
885.214	62
891.164	62
897.108	54
903.046	58
908.977	60
914.903	62
920.822	58
926.735	60
932.643	56
938.543	78
944.439	100
950.328	152
956.21	310
962.088	372
967.958	226
973.824	130
979.682	86
985.534	80
991.382	72
997.222	50
1003.06	68
1008.89	60
1014.71	72
1020.53	78
1026.34	80
1032.14	104
1037.94	92
1043.73	84
1049.52	70
1055.3	64
1061.08	64
1066.85	72
1072.61	62
1078.37	70
1084.12	60
1089.87	70
1095.61	70
1101.34	84
1107.07	146
1112.8	358
1118.51	158
1124.22	102
1129.93	90
1135.63	78
1141.32	90
1147.01	78
1152.69	72
1158.37	90
1164.04	90
1169.71	88
1175.37	96
1181.02	156
1186.67	246
1192.31	184
1197.95	152
1203.58	172
1209.2	142
1214.82	102
1220.44	92
1226.05	106
1231.65	136
1237.25	100
1242.84	90
1248.42	88
1254	80
1259.58	90
1265.15	96
1270.71	88
1276.27	112
1281.82	128
1287.37	160
1292.91	192
1298.45	348
1303.98	784
1309.5	514
1315.02	262
1320.53	192
1326.04	186
1331.54	164
1337.04	136
1342.53	162
1348.02	172
1353.5	174
1358.98	144
1364.45	148
1369.91	174
1375.37	342
1380.82	418
1386.27	282
1391.71	160
1397.15	148
1402.58	142
1408.01	144
1413.43	150
1418.85	146
1424.26	180
1429.66	184
1435.06	216
1440.46	222
1445.85	198
1451.23	164
1456.61	164
1461.98	154
1467.35	154
1472.71	142
1478.07	140
1483.42	130
1488.77	128
1494.11	128
1499.45	122
1504.78	114
1510.11	110
1515.43	120
1520.74	104
1526.05	108
1531.36	112
1536.66	110
1541.95	110
1547.24	118
1552.52	106
1557.8	110
1563.08	110
1568.35	110
1573.61	120
1578.87	144
1584.12	180
1589.37	256
1594.61	314
1599.85	464
1605.08	452
1610.31	372
1615.53	248
1620.75	184
1625.96	124
1631.17	116
1636.37	92
1641.57	98
1646.76	86
1651.95	96
1657.13	88
1662.31	86
1667.48	78
1672.65	82
1677.81	76
1682.97	76
1688.12	76
1693.27	98
1698.41	72
1702.26	76