File: Mixture_Classification/Jesse_Dataset_v2/Pure Raman/Polypropylene oxide/785nm/ps-ppo-6jan25-0,0000-map2_Y04_X10.txt
204.377	404
211.048	352
217.712	352
224.369	498
231.019	932
237.661	926
244.297	624
250.924	414
257.546	294
264.16	208
270.766	186
277.365	192
283.958	254
290.543	374
297.121	450
303.693	354
310.256	272
316.813	246
323.362	236
329.905	272
336.441	264
342.969	212
349.491	224
356.006	216
362.513	188
369.014	200
375.508	194
381.994	152
388.473	136
394.947	124
401.412	138
407.871	166
414.323	212
420.768	172
427.206	122
433.637	102
440.062	78
446.479	70
452.89	82
459.293	86
465.691	98
472.081	154
478.463	220
484.84	300
491.21	166
497.573	108
503.929	108
510.279	164
516.621	184
522.957	168
529.287	246
535.609	404
541.925	416
548.234	216
554.536	220
560.832	384
567.12	1500
573.403	2050
579.679	506
585.948	342
592.211	276
598.466	222
604.715	114
610.958	96
617.194	92
623.424	124
629.647	134
635.864	156
642.074	128
648.276	98
654.473	86
660.664	78
666.847	70
673.025	54
679.195	56
685.36	54
691.517	58
697.669	64
703.814	66
709.953	86
716.085	98
722.21	70
728.33	82
734.443	78
740.549	90
746.65	144
752.743	124
758.831	96
764.912	62
770.986	66
777.055	76
783.117	82
789.173	68
795.222	70
801.265	68
807.302	80
813.333	72
819.357	84
825.376	126
831.387	500
837.392	250
843.392	102
849.386	98
855.372	88
861.353	86
867.328	64
873.296	70
879.258	62
885.214	68
891.164	56
897.108	60
903.046	60
908.977	60
914.903	62
920.822	52
926.735	64
932.643	62
938.543	72
944.439	92
950.328	152
956.21	326
962.088	392
967.958	240
973.824	142
979.682	88
985.534	74
991.382	72
997.222	68
1003.06	70
1008.89	66
1014.71	68
1020.53	78
1026.34	98
1032.14	88
1037.94	94
1043.73	86
1049.52	78
1055.3	76
1061.08	64
1066.85	68
1072.61	60
1078.37	64
1084.12	64
1089.87	74
1095.61	72
1101.34	74
1107.07	142
1112.8	356
1118.51	164
1124.22	112
1129.93	92
1135.63	86
1141.32	94
1147.01	76
1152.69	78
1158.37	86
1164.04	100
1169.71	86
1175.37	106
1181.02	148
1186.67	230
1192.31	166
1197.95	168
1203.58	184
1209.2	130
1214.82	92
1220.44	82
1226.05	116
1231.65	132
1237.25	100
1242.84	94
1248.42	86
1254	84
1259.58	90
1265.15	86
1270.71	94
1276.27	120
1281.82	138
1287.37	154
1292.91	186
1298.45	362
1303.98	782
1309.5	540
1315.02	284
1320.53	198
1326.04	180
1331.54	184
1337.04	146
1342.53	148
1348.02	166
1353.5	174
1358.98	144
1364.45	160
1369.91	174
1375.37	334
1380.82	436
1386.27	288
1391.71	160
1397.15	142
1402.58	134
1408.01	136
1413.43	144
1418.85	156
1424.26	194
1429.66	202
1435.06	210
1440.46	232
1445.85	194
1451.23	180
1456.61	172
1461.98	160
1467.35	146
1472.71	162
1478.07	146
1483.42	146
1488.77	130
1494.11	114
1499.45	120
1504.78	114
1510.11	118
1515.43	112
1520.74	120
1526.05	112
1531.36	112
1536.66	102
1541.95	114
1547.24	112
1552.52	116
1557.8	110
1563.08	116
1568.35	116
1573.61	128
1578.87	146
1584.12	158
1589.37	240
1594.61	364
1599.85	442
1605.08	458
1610.31	374
1615.53	268
1620.75	172
1625.96	132
1631.17	108
1636.37	102
1641.57	102
1646.76	84
1651.95	86
1657.13	84
1662.31	78
1667.48	80
1672.65	78
1677.81	76
1682.97	86
1688.12	82
1693.27	82
1698.41	78
1702.26	80