File: Mixture_Classification/Jesse_Dataset_v2/Pure Raman/Polypropylene oxide/785nm/ps-ppo-6jan25-0,0000-map2_Y03_X05.txt
204.377	380
211.048	332
217.712	324
224.369	472
231.019	888
237.661	890
244.297	622
250.924	414
257.546	268
264.16	178
270.766	170
277.365	186
283.958	214
290.543	358
297.121	420
303.693	326
310.256	272
316.813	230
323.362	230
329.905	252
336.441	254
342.969	218
349.491	214
356.006	214
362.513	204
369.014	202
375.508	192
381.994	130
388.473	132
394.947	122
401.412	124
407.871	166
414.323	204
420.768	158
427.206	118
433.637	86
440.062	84
446.479	80
452.89	84
459.293	78
465.691	104
472.081	152
478.463	220
484.84	302
491.21	170
497.573	110
503.929	100
510.279	164
516.621	162
522.957	144
529.287	234
535.609	390
541.925	390
548.234	204
554.536	206
560.832	386
567.12	1390
573.403	1952
579.679	496
585.948	318
592.211	262
598.466	200
604.715	116
610.958	88
617.194	92
623.424	106
629.647	132
635.864	154
642.074	120
648.276	90
654.473	82
660.664	72
666.847	62
673.025	52
679.195	56
685.36	66
691.517	58
697.669	60
703.814	60
709.953	80
716.085	98
722.21	76
728.33	76
734.443	68
740.549	96
746.65	150
752.743	114
758.831	90
764.912	66
770.986	70
777.055	74
783.117	80
789.173	70
795.222	74
801.265	64
807.302	74
813.333	76
819.357	84
825.376	128
831.387	482
837.392	244
843.392	92
849.386	104
855.372	92
861.353	76
867.328	70
873.296	62
879.258	62
885.214	54
891.164	54
897.108	54
903.046	54
908.977	62
914.903	56
920.822	56
926.735	56
932.643	66
938.543	76
944.439	92
950.328	138
956.21	298
962.088	350
967.958	234
973.824	132
979.682	70
985.534	74
991.382	76
997.222	76
1003.06	66
1008.89	64
1014.71	68
1020.53	82
1026.34	84
1032.14	92
1037.94	94
1043.73	80
1049.52	60
1055.3	68
1061.08	66
1066.85	58
1072.61	64
1078.37	60
1084.12	66
1089.87	64
1095.61	70
1101.34	86
1107.07	152
1112.8	348
1118.51	152
1124.22	98
1129.93	84
1135.63	84
1141.32	84
1147.01	78
1152.69	72
1158.37	84
1164.04	98
1169.71	76
1175.37	104
1181.02	146
1186.67	238
1192.31	166
1197.95	146
1203.58	180
1209.2	126
1214.82	90
1220.44	88
1226.05	102
1231.65	124
1237.25	94
1242.84	86
1248.42	88
1254	88
1259.58	86
1265.15	92
1270.71	96
1276.27	104
1281.82	124
1287.37	158
1292.91	192
1298.45	318
1303.98	774
1309.5	514
1315.02	242
1320.53	198
1326.04	190
1331.54	160
1337.04	134
1342.53	138
1348.02	164
1353.5	176
1358.98	156
1364.45	154
1369.91	164
1375.37	338
1380.82	430
1386.27	274
1391.71	164
1397.15	136
1402.58	130
1408.01	136
1413.43	136
1418.85	160
1424.26	170
1429.66	192
1435.06	196
1440.46	224
1445.85	200
1451.23	174
1456.61	158
1461.98	154
1467.35	152
1472.71	146
1478.07	152
1483.42	134
1488.77	118
1494.11	118
1499.45	120
1504.78	120
1510.11	110
1515.43	116
1520.74	110
1526.05	106
1531.36	100
1536.66	110
1541.95	102
1547.24	114
1552.52	120
1557.8	112
1563.08	106
1568.35	110
1573.61	118
1578.87	140
1584.12	176
1589.37	236
1594.61	348
1599.85	458
1605.08	466
1610.31	358
1615.53	252
1620.75	156
1625.96	124
1631.17	106
1636.37	94
1641.57	96
1646.76	96
1651.95	80
1657.13	88
1662.31	80
1667.48	78
1672.65	76
1677.81	78
1682.97	74
1688.12	84
1693.27	84
1698.41	72
1702.26	82