File: Mixture_Classification/Jesse_Dataset_v2/Pure Raman/Polypropylene oxide/785nm/ps-ppo-6jan25-0,0000-map2_Y02_X04.txt
204.377	406
211.048	360
217.712	336
224.369	464
231.019	930
237.661	906
244.297	618
250.924	398
257.546	282
264.16	200
270.766	190
277.365	188
283.958	230
290.543	382
297.121	442
303.693	320
310.256	272
316.813	228
323.362	232
329.905	260
336.441	262
342.969	210
349.491	204
356.006	208
362.513	202
369.014	194
375.508	184
381.994	150
388.473	130
394.947	128
401.412	126
407.871	148
414.323	212
420.768	176
427.206	120
433.637	96
440.062	92
446.479	80
452.89	90
459.293	86
465.691	102
472.081	160
478.463	214
484.84	300
491.21	176
497.573	112
503.929	96
510.279	176
516.621	176
522.957	156
529.287	226
535.609	428
541.925	412
548.234	224
554.536	212
560.832	402
567.12	1474
573.403	2014
579.679	522
585.948	328
592.211	260
598.466	210
604.715	124
610.958	94
617.194	94
623.424	100
629.647	132
635.864	156
642.074	128
648.276	96
654.473	86
660.664	76
666.847	66
673.025	68
679.195	56
685.36	64
691.517	62
697.669	54
703.814	60
709.953	80
716.085	92
722.21	74
728.33	74
734.443	68
740.549	94
746.65	140
752.743	122
758.831	92
764.912	78
770.986	70
777.055	70
783.117	70
789.173	76
795.222	70
801.265	68
807.302	72
813.333	74
819.357	80
825.376	134
831.387	488
837.392	268
843.392	108
849.386	90
855.372	88
861.353	82
867.328	78
873.296	72
879.258	64
885.214	58
891.164	66
897.108	58
903.046	58
908.977	60
914.903	54
920.822	58
926.735	60
932.643	66
938.543	76
944.439	88
950.328	144
956.21	294
962.088	344
967.958	232
973.824	144
979.682	84
985.534	76
991.382	72
997.222	68
1003.06	66
1008.89	62
1014.71	66
1020.53	80
1026.34	80
1032.14	98
1037.94	88
1043.73	94
1049.52	72
1055.3	66
1061.08	72
1066.85	52
1072.61	58
1078.37	70
1084.12	64
1089.87	72
1095.61	72
1101.34	80
1107.07	152
1112.8	352
1118.51	156
1124.22	100
1129.93	88
1135.63	82
1141.32	90
1147.01	74
1152.69	74
1158.37	84
1164.04	92
1169.71	80
1175.37	98
1181.02	156
1186.67	250
1192.31	152
1197.95	158
1203.58	182
1209.2	138
1214.82	92
1220.44	90
1226.05	114
1231.65	130
1237.25	96
1242.84	94
1248.42	90
1254	88
1259.58	92
1265.15	92
1270.71	98
1276.27	100
1281.82	122
1287.37	150
1292.91	206
1298.45	340
1303.98	780
1309.5	522
1315.02	266
1320.53	200
1326.04	180
1331.54	172
1337.04	154
1342.53	148
1348.02	156
1353.5	170
1358.98	150
1364.45	138
1369.91	188
1375.37	344
1380.82	422
1386.27	246
1391.71	164
1397.15	144
1402.58	132
1408.01	136
1413.43	150
1418.85	162
1424.26	188
1429.66	174
1435.06	204
1440.46	220
1445.85	210
1451.23	172
1456.61	156
1461.98	156
1467.35	152
1472.71	156
1478.07	138
1483.42	134
1488.77	136
1494.11	124
1499.45	112
1504.78	110
1510.11	112
1515.43	112
1520.74	112
1526.05	110
1531.36	110
1536.66	110
1541.95	112
1547.24	104
1552.52	108
1557.8	108
1563.08	120
1568.35	118
1573.61	130
1578.87	148
1584.12	180
1589.37	242
1594.61	356
1599.85	446
1605.08	452
1610.31	334
1615.53	254
1620.75	182
1625.96	124
1631.17	120
1636.37	100
1641.57	90
1646.76	82
1651.95	82
1657.13	92
1662.31	84
1667.48	80
1672.65	80
1677.81	76
1682.97	82
1688.12	80
1693.27	84
1698.41	86
1702.26	76