File: Mixture_Classification/Jesse_Dataset_v2/Pure Raman/Polypropylene oxide/785nm/ps-ppo-6jan25-0,0000-map2_Y03_X08.txt
204.377	418
211.048	364
217.712	340
224.369	490
231.019	924
237.661	948
244.297	662
250.924	414
257.546	280
264.16	212
270.766	194
277.365	200
283.958	232
290.543	368
297.121	438
303.693	346
310.256	268
316.813	236
323.362	244
329.905	262
336.441	264
342.969	222
349.491	218
356.006	222
362.513	194
369.014	198
375.508	186
381.994	164
388.473	138
394.947	130
401.412	138
407.871	168
414.323	230
420.768	170
427.206	118
433.637	98
440.062	86
446.479	74
452.89	76
459.293	86
465.691	100
472.081	158
478.463	248
484.84	304
491.21	176
497.573	114
503.929	104
510.279	158
516.621	180
522.957	148
529.287	234
535.609	418
541.925	406
548.234	238
554.536	214
560.832	424
567.12	1506
573.403	2102
579.679	516
585.948	366
592.211	288
598.466	210
604.715	130
610.958	90
617.194	94
623.424	112
629.647	142
635.864	152
642.074	136
648.276	100
654.473	82
660.664	78
666.847	62
673.025	64
679.195	70
685.36	60
691.517	66
697.669	56
703.814	66
709.953	82
716.085	102
722.21	78
728.33	72
734.443	88
740.549	98
746.65	142
752.743	122
758.831	90
764.912	76
770.986	76
777.055	76
783.117	72
789.173	66
795.222	64
801.265	66
807.302	84
813.333	78
819.357	84
825.376	138
831.387	488
837.392	262
843.392	100
849.386	96
855.372	88
861.353	76
867.328	72
873.296	64
879.258	64
885.214	64
891.164	62
897.108	62
903.046	54
908.977	58
914.903	54
920.822	58
926.735	60
932.643	66
938.543	74
944.439	92
950.328	158
956.21	308
962.088	386
967.958	250
973.824	134
979.682	88
985.534	72
991.382	78
997.222	68
1003.06	66
1008.89	64
1014.71	76
1020.53	74
1026.34	92
1032.14	98
1037.94	92
1043.73	78
1049.52	76
1055.3	66
1061.08	64
1066.85	68
1072.61	64
1078.37	66
1084.12	68
1089.87	68
1095.61	62
1101.34	82
1107.07	138
1112.8	370
1118.51	156
1124.22	108
1129.93	86
1135.63	88
1141.32	80
1147.01	80
1152.69	88
1158.37	90
1164.04	100
1169.71	90
1175.37	106
1181.02	148
1186.67	256
1192.31	160
1197.95	164
1203.58	192
1209.2	134
1214.82	94
1220.44	90
1226.05	112
1231.65	132
1237.25	100
1242.84	92
1248.42	86
1254	88
1259.58	90
1265.15	104
1270.71	100
1276.27	104
1281.82	134
1287.37	148
1292.91	190
1298.45	368
1303.98	790
1309.5	546
1315.02	274
1320.53	184
1326.04	174
1331.54	176
1337.04	144
1342.53	144
1348.02	172
1353.5	178
1358.98	154
1364.45	156
1369.91	176
1375.37	354
1380.82	434
1386.27	278
1391.71	166
1397.15	160
1402.58	132
1408.01	136
1413.43	148
1418.85	164
1424.26	174
1429.66	184
1435.06	198
1440.46	216
1445.85	218
1451.23	184
1456.61	178
1461.98	158
1467.35	152
1472.71	162
1478.07	156
1483.42	138
1488.77	126
1494.11	120
1499.45	112
1504.78	110
1510.11	112
1515.43	110
1520.74	112
1526.05	100
1531.36	114
1536.66	102
1541.95	116
1547.24	112
1552.52	120
1557.8	120
1563.08	116
1568.35	124
1573.61	142
1578.87	138
1584.12	180
1589.37	234
1594.61	356
1599.85	470
1605.08	478
1610.31	374
1615.53	256
1620.75	168
1625.96	130
1631.17	108
1636.37	110
1641.57	96
1646.76	94
1651.95	90
1657.13	88
1662.31	78
1667.48	80
1672.65	80
1677.81	84
1682.97	80
1688.12	80
1693.27	90
1698.41	84
1702.26	80