File: Mixture_Classification/Jesse_Dataset_v2/Pure Raman/Polypropylene oxide/785nm/ps-ppo-6jan25-0,0000-map2_Y04_X08.txt
204.377	398
211.048	356
217.712	354
224.369	486
231.019	916
237.661	946
244.297	668
250.924	414
257.546	278
264.16	220
270.766	202
277.365	184
283.958	238
290.543	394
297.121	464
303.693	342
310.256	272
316.813	238
323.362	236
329.905	244
336.441	274
342.969	220
349.491	222
356.006	216
362.513	202
369.014	206
375.508	196
381.994	146
388.473	140
394.947	130
401.412	126
407.871	162
414.323	218
420.768	174
427.206	120
433.637	100
440.062	96
446.479	84
452.89	80
459.293	82
465.691	114
472.081	156
478.463	224
484.84	298
491.21	166
497.573	116
503.929	106
510.279	156
516.621	164
522.957	152
529.287	224
535.609	430
541.925	442
548.234	226
554.536	220
560.832	398
567.12	1456
573.403	2074
579.679	516
585.948	334
592.211	274
598.466	204
604.715	118
610.958	102
617.194	88
623.424	108
629.647	146
635.864	154
642.074	128
648.276	106
654.473	88
660.664	70
666.847	70
673.025	58
679.195	60
685.36	66
691.517	58
697.669	60
703.814	64
709.953	80
716.085	106
722.21	76
728.33	80
734.443	82
740.549	96
746.65	136
752.743	122
758.831	92
764.912	72
770.986	70
777.055	82
783.117	80
789.173	64
795.222	68
801.265	68
807.302	78
813.333	82
819.357	86
825.376	136
831.387	496
837.392	238
843.392	104
849.386	92
855.372	92
861.353	88
867.328	64
873.296	66
879.258	58
885.214	64
891.164	60
897.108	46
903.046	58
908.977	56
914.903	56
920.822	58
926.735	56
932.643	66
938.543	76
944.439	94
950.328	156
956.21	310
962.088	388
967.958	224
973.824	134
979.682	90
985.534	72
991.382	84
997.222	64
1003.06	68
1008.89	62
1014.71	62
1020.53	74
1026.34	90
1032.14	100
1037.94	88
1043.73	84
1049.52	72
1055.3	70
1061.08	68
1066.85	54
1072.61	60
1078.37	68
1084.12	60
1089.87	72
1095.61	68
1101.34	78
1107.07	134
1112.8	368
1118.51	158
1124.22	108
1129.93	86
1135.63	86
1141.32	92
1147.01	76
1152.69	72
1158.37	90
1164.04	88
1169.71	82
1175.37	104
1181.02	144
1186.67	232
1192.31	172
1197.95	154
1203.58	180
1209.2	128
1214.82	94
1220.44	82
1226.05	112
1231.65	134
1237.25	104
1242.84	82
1248.42	90
1254	86
1259.58	100
1265.15	98
1270.71	94
1276.27	104
1281.82	128
1287.37	158
1292.91	194
1298.45	366
1303.98	772
1309.5	516
1315.02	272
1320.53	190
1326.04	188
1331.54	172
1337.04	150
1342.53	156
1348.02	174
1353.5	174
1358.98	160
1364.45	158
1369.91	182
1375.37	336
1380.82	444
1386.27	294
1391.71	168
1397.15	142
1402.58	144
1408.01	150
1413.43	140
1418.85	154
1424.26	188
1429.66	188
1435.06	202
1440.46	224
1445.85	198
1451.23	168
1456.61	162
1461.98	168
1467.35	142
1472.71	144
1478.07	150
1483.42	152
1488.77	134
1494.11	116
1499.45	122
1504.78	116
1510.11	120
1515.43	112
1520.74	100
1526.05	108
1531.36	106
1536.66	114
1541.95	110
1547.24	114
1552.52	102
1557.8	108
1563.08	116
1568.35	106
1573.61	130
1578.87	140
1584.12	186
1589.37	232
1594.61	344
1599.85	496
1605.08	466
1610.31	358
1615.53	266
1620.75	176
1625.96	128
1631.17	112
1636.37	98
1641.57	98
1646.76	98
1651.95	88
1657.13	82
1662.31	92
1667.48	80
1672.65	78
1677.81	70
1682.97	70
1688.12	76
1693.27	84
1698.41	80
1702.26	78