File: Mixture_Classification/Jesse_Dataset_v2/Pure Raman/Polypropylene oxide/785nm/ps-ppo-6jan25-0,0000-map2_Y01_X05.txt
204.377	380
211.048	350
217.712	340
224.369	474
231.019	886
237.661	918
244.297	624
250.924	406
257.546	256
264.16	206
270.766	166
277.365	176
283.958	230
290.543	336
297.121	412
303.693	332
310.256	258
316.813	234
323.362	230
329.905	244
336.441	262
342.969	208
349.491	212
356.006	208
362.513	180
369.014	194
375.508	184
381.994	144
388.473	136
394.947	128
401.412	128
407.871	156
414.323	210
420.768	160
427.206	120
433.637	92
440.062	82
446.479	72
452.89	82
459.293	80
465.691	104
472.081	150
478.463	210
484.84	284
491.21	176
497.573	110
503.929	94
510.279	170
516.621	178
522.957	150
529.287	236
535.609	396
541.925	414
548.234	226
554.536	196
560.832	382
567.12	1434
573.403	1968
579.679	504
585.948	328
592.211	266
598.466	218
604.715	112
610.958	96
617.194	100
623.424	112
629.647	124
635.864	154
642.074	122
648.276	100
654.473	86
660.664	78
666.847	68
673.025	60
679.195	56
685.36	68
691.517	60
697.669	56
703.814	58
709.953	84
716.085	98
722.21	76
728.33	78
734.443	72
740.549	88
746.65	148
752.743	110
758.831	88
764.912	64
770.986	64
777.055	68
783.117	76
789.173	74
795.222	62
801.265	62
807.302	74
813.333	74
819.357	84
825.376	130
831.387	482
837.392	252
843.392	106
849.386	92
855.372	86
861.353	76
867.328	64
873.296	66
879.258	62
885.214	52
891.164	62
897.108	54
903.046	58
908.977	54
914.903	56
920.822	52
926.735	60
932.643	64
938.543	66
944.439	92
950.328	148
956.21	302
962.088	368
967.958	230
973.824	134
979.682	88
985.534	68
991.382	78
997.222	66
1003.06	64
1008.89	60
1014.71	70
1020.53	66
1026.34	90
1032.14	100
1037.94	94
1043.73	78
1049.52	60
1055.3	66
1061.08	62
1066.85	58
1072.61	56
1078.37	66
1084.12	64
1089.87	68
1095.61	70
1101.34	76
1107.07	142
1112.8	356
1118.51	172
1124.22	102
1129.93	88
1135.63	82
1141.32	88
1147.01	84
1152.69	68
1158.37	88
1164.04	94
1169.71	82
1175.37	96
1181.02	138
1186.67	216
1192.31	156
1197.95	138
1203.58	164
1209.2	132
1214.82	88
1220.44	94
1226.05	118
1231.65	128
1237.25	92
1242.84	86
1248.42	84
1254	84
1259.58	84
1265.15	92
1270.71	96
1276.27	98
1281.82	132
1287.37	164
1292.91	190
1298.45	334
1303.98	724
1309.5	510
1315.02	270
1320.53	196
1326.04	182
1331.54	166
1337.04	152
1342.53	164
1348.02	144
1353.5	160
1358.98	154
1364.45	150
1369.91	186
1375.37	328
1380.82	412
1386.27	302
1391.71	164
1397.15	148
1402.58	124
1408.01	118
1413.43	136
1418.85	164
1424.26	182
1429.66	184
1435.06	202
1440.46	214
1445.85	206
1451.23	172
1456.61	158
1461.98	156
1467.35	166
1472.71	148
1478.07	138
1483.42	142
1488.77	134
1494.11	110
1499.45	114
1504.78	128
1510.11	110
1515.43	114
1520.74	106
1526.05	110
1531.36	108
1536.66	116
1541.95	116
1547.24	114
1552.52	112
1557.8	114
1563.08	110
1568.35	118
1573.61	128
1578.87	146
1584.12	174
1589.37	242
1594.61	340
1599.85	450
1605.08	440
1610.31	358
1615.53	260
1620.75	174
1625.96	126
1631.17	120
1636.37	96
1641.57	90
1646.76	90
1651.95	84
1657.13	86
1662.31	76
1667.48	76
1672.65	80
1677.81	82
1682.97	80
1688.12	74
1693.27	86
1698.41	72
1702.26	80