File: Mixture_Classification/Jesse_Dataset_v2/Pure Raman/Polypropylene oxide/785nm/ps-ppo-6jan25-0,0000-map2_Y05_X05.txt
204.377	374
211.048	342
217.712	324
224.369	472
231.019	902
237.661	920
244.297	602
250.924	382
257.546	266
264.16	200
270.766	172
277.365	180
283.958	222
290.543	368
297.121	424
303.693	320
310.256	260
316.813	220
323.362	212
329.905	254
336.441	250
342.969	196
349.491	204
356.006	210
362.513	184
369.014	192
375.508	186
381.994	140
388.473	126
394.947	116
401.412	122
407.871	138
414.323	200
420.768	164
427.206	108
433.637	98
440.062	84
446.479	74
452.89	70
459.293	80
465.691	102
472.081	144
478.463	220
484.84	268
491.21	174
497.573	102
503.929	92
510.279	144
516.621	158
522.957	158
529.287	220
535.609	398
541.925	402
548.234	228
554.536	202
560.832	384
567.12	1434
573.403	1934
579.679	476
585.948	340
592.211	248
598.466	190
604.715	118
610.958	94
617.194	86
623.424	102
629.647	116
635.864	152
642.074	122
648.276	102
654.473	76
660.664	78
666.847	62
673.025	58
679.195	62
685.36	62
691.517	50
697.669	56
703.814	54
709.953	66
716.085	86
722.21	76
728.33	70
734.443	78
740.549	78
746.65	142
752.743	106
758.831	92
764.912	70
770.986	66
777.055	74
783.117	72
789.173	70
795.222	62
801.265	60
807.302	56
813.333	74
819.357	80
825.376	134
831.387	478
837.392	242
843.392	88
849.386	100
855.372	84
861.353	72
867.328	70
873.296	58
879.258	60
885.214	56
891.164	58
897.108	58
903.046	52
908.977	56
914.903	60
920.822	58
926.735	60
932.643	62
938.543	64
944.439	94
950.328	152
956.21	306
962.088	364
967.958	212
973.824	120
979.682	84
985.534	66
991.382	70
997.222	64
1003.06	58
1008.89	56
1014.71	62
1020.53	72
1026.34	76
1032.14	90
1037.94	84
1043.73	78
1049.52	68
1055.3	56
1061.08	60
1066.85	64
1072.61	64
1078.37	62
1084.12	58
1089.87	58
1095.61	66
1101.34	76
1107.07	148
1112.8	360
1118.51	144
1124.22	98
1129.93	82
1135.63	84
1141.32	84
1147.01	78
1152.69	66
1158.37	82
1164.04	96
1169.71	74
1175.37	102
1181.02	158
1186.67	230
1192.31	150
1197.95	150
1203.58	180
1209.2	122
1214.82	92
1220.44	94
1226.05	106
1231.65	120
1237.25	96
1242.84	72
1248.42	76
1254	90
1259.58	74
1265.15	96
1270.71	102
1276.27	100
1281.82	130
1287.37	142
1292.91	194
1298.45	350
1303.98	734
1309.5	516
1315.02	244
1320.53	198
1326.04	180
1331.54	164
1337.04	148
1342.53	144
1348.02	164
1353.5	160
1358.98	142
1364.45	154
1369.91	166
1375.37	330
1380.82	410
1386.27	280
1391.71	154
1397.15	132
1402.58	126
1408.01	136
1413.43	136
1418.85	150
1424.26	166
1429.66	170
1435.06	198
1440.46	214
1445.85	194
1451.23	168
1456.61	152
1461.98	152
1467.35	136
1472.71	148
1478.07	134
1483.42	128
1488.77	114
1494.11	112
1499.45	118
1504.78	110
1510.11	116
1515.43	106
1520.74	106
1526.05	102
1531.36	100
1536.66	102
1541.95	104
1547.24	106
1552.52	102
1557.8	108
1563.08	98
1568.35	110
1573.61	128
1578.87	138
1584.12	156
1589.37	240
1594.61	316
1599.85	428
1605.08	446
1610.31	362
1615.53	234
1620.75	170
1625.96	126
1631.17	102
1636.37	94
1641.57	86
1646.76	76
1651.95	92
1657.13	84
1662.31	84
1667.48	78
1672.65	84
1677.81	80
1682.97	72
1688.12	86
1693.27	78
1698.41	76
1702.26	80