File: Mixture_Classification/Jesse_Dataset_v2/Pure Raman/Polypropylene oxide/785nm/ps-ppo-6jan25-0,0000-map2_Y00_X07.txt
204.377	398
211.048	364
217.712	338
224.369	484
231.019	912
237.661	924
244.297	616
250.924	420
257.546	278
264.16	212
270.766	202
277.365	194
283.958	220
290.543	350
297.121	438
303.693	334
310.256	282
316.813	232
323.362	238
329.905	264
336.441	240
342.969	220
349.491	190
356.006	216
362.513	200
369.014	186
375.508	188
381.994	150
388.473	132
394.947	120
401.412	122
407.871	164
414.323	214
420.768	168
427.206	124
433.637	100
440.062	84
446.479	72
452.89	80
459.293	90
465.691	106
472.081	160
478.463	220
484.84	294
491.21	184
497.573	118
503.929	110
510.279	168
516.621	184
522.957	156
529.287	230
535.609	412
541.925	412
548.234	212
554.536	220
560.832	402
567.12	1440
573.403	1984
579.679	498
585.948	326
592.211	268
598.466	212
604.715	122
610.958	100
617.194	96
623.424	116
629.647	134
635.864	152
642.074	136
648.276	108
654.473	82
660.664	82
666.847	66
673.025	68
679.195	58
685.36	66
691.517	58
697.669	56
703.814	66
709.953	84
716.085	110
722.21	80
728.33	74
734.443	80
740.549	102
746.65	142
752.743	132
758.831	92
764.912	64
770.986	78
777.055	78
783.117	84
789.173	74
795.222	68
801.265	76
807.302	76
813.333	76
819.357	88
825.376	128
831.387	494
837.392	234
843.392	112
849.386	94
855.372	92
861.353	80
867.328	70
873.296	74
879.258	62
885.214	66
891.164	62
897.108	54
903.046	58
908.977	58
914.903	58
920.822	60
926.735	58
932.643	66
938.543	62
944.439	96
950.328	158
956.21	300
962.088	366
967.958	240
973.824	134
979.682	80
985.534	76
991.382	80
997.222	68
1003.06	62
1008.89	62
1014.71	66
1020.53	82
1026.34	86
1032.14	98
1037.94	94
1043.73	88
1049.52	74
1055.3	68
1061.08	68
1066.85	64
1072.61	64
1078.37	66
1084.12	66
1089.87	64
1095.61	68
1101.34	84
1107.07	142
1112.8	354
1118.51	170
1124.22	100
1129.93	90
1135.63	84
1141.32	96
1147.01	78
1152.69	72
1158.37	80
1164.04	96
1169.71	94
1175.37	106
1181.02	132
1186.67	252
1192.31	172
1197.95	174
1203.58	186
1209.2	136
1214.82	92
1220.44	94
1226.05	110
1231.65	136
1237.25	108
1242.84	102
1248.42	88
1254	88
1259.58	86
1265.15	96
1270.71	100
1276.27	100
1281.82	134
1287.37	154
1292.91	192
1298.45	348
1303.98	804
1309.5	518
1315.02	254
1320.53	194
1326.04	190
1331.54	170
1337.04	144
1342.53	150
1348.02	158
1353.5	156
1358.98	148
1364.45	142
1369.91	178
1375.37	342
1380.82	430
1386.27	278
1391.71	172
1397.15	146
1402.58	144
1408.01	154
1413.43	144
1418.85	164
1424.26	180
1429.66	200
1435.06	204
1440.46	204
1445.85	202
1451.23	156
1456.61	158
1461.98	168
1467.35	152
1472.71	148
1478.07	146
1483.42	132
1488.77	122
1494.11	116
1499.45	118
1504.78	120
1510.11	110
1515.43	118
1520.74	106
1526.05	108
1531.36	114
1536.66	102
1541.95	110
1547.24	116
1552.52	112
1557.8	108
1563.08	120
1568.35	116
1573.61	126
1578.87	154
1584.12	172
1589.37	244
1594.61	344
1599.85	474
1605.08	474
1610.31	384
1615.53	256
1620.75	170
1625.96	138
1631.17	114
1636.37	102
1641.57	88
1646.76	92
1651.95	80
1657.13	88
1662.31	84
1667.48	74
1672.65	78
1677.81	76
1682.97	78
1688.12	86
1693.27	92
1698.41	86
1702.26	80