File: Mixture_Classification/Jesse_Dataset_v2/Pure Raman/Polypropylene oxide/785nm/ps-ppo-6jan25-0,0000-map2_Y04_X07.txt
204.377	364
211.048	328
217.712	334
224.369	486
231.019	894
237.661	912
244.297	628
250.924	404
257.546	284
264.16	206
270.766	176
277.365	188
283.958	234
290.543	382
297.121	434
303.693	308
310.256	262
316.813	238
323.362	236
329.905	260
336.441	246
342.969	224
349.491	194
356.006	212
362.513	196
369.014	190
375.508	192
381.994	156
388.473	132
394.947	130
401.412	130
407.871	156
414.323	224
420.768	180
427.206	116
433.637	92
440.062	92
446.479	70
452.89	82
459.293	86
465.691	96
472.081	146
478.463	224
484.84	300
491.21	176
497.573	112
503.929	90
510.279	158
516.621	154
522.957	154
529.287	234
535.609	414
541.925	400
548.234	220
554.536	194
560.832	410
567.12	1460
573.403	1994
579.679	504
585.948	338
592.211	270
598.466	204
604.715	112
610.958	92
617.194	90
623.424	116
629.647	138
635.864	152
642.074	122
648.276	96
654.473	86
660.664	66
666.847	64
673.025	58
679.195	56
685.36	66
691.517	56
697.669	58
703.814	66
709.953	82
716.085	100
722.21	78
728.33	68
734.443	76
740.549	86
746.65	148
752.743	118
758.831	90
764.912	68
770.986	62
777.055	80
783.117	76
789.173	64
795.222	72
801.265	62
807.302	82
813.333	72
819.357	90
825.376	128
831.387	482
837.392	272
843.392	106
849.386	98
855.372	86
861.353	76
867.328	64
873.296	56
879.258	68
885.214	62
891.164	58
897.108	56
903.046	52
908.977	54
914.903	60
920.822	56
926.735	64
932.643	64
938.543	70
944.439	96
950.328	144
956.21	308
962.088	388
967.958	222
973.824	136
979.682	80
985.534	74
991.382	76
997.222	64
1003.06	66
1008.89	60
1014.71	66
1020.53	70
1026.34	86
1032.14	102
1037.94	90
1043.73	78
1049.52	72
1055.3	62
1061.08	60
1066.85	56
1072.61	60
1078.37	68
1084.12	64
1089.87	72
1095.61	58
1101.34	82
1107.07	138
1112.8	356
1118.51	154
1124.22	100
1129.93	90
1135.63	76
1141.32	80
1147.01	82
1152.69	76
1158.37	82
1164.04	88
1169.71	86
1175.37	98
1181.02	150
1186.67	238
1192.31	176
1197.95	164
1203.58	174
1209.2	128
1214.82	92
1220.44	88
1226.05	112
1231.65	140
1237.25	88
1242.84	84
1248.42	80
1254	80
1259.58	86
1265.15	94
1270.71	98
1276.27	110
1281.82	134
1287.37	146
1292.91	194
1298.45	360
1303.98	768
1309.5	542
1315.02	262
1320.53	198
1326.04	184
1331.54	174
1337.04	150
1342.53	156
1348.02	164
1353.5	170
1358.98	150
1364.45	144
1369.91	176
1375.37	346
1380.82	412
1386.27	280
1391.71	164
1397.15	144
1402.58	140
1408.01	140
1413.43	146
1418.85	170
1424.26	180
1429.66	190
1435.06	206
1440.46	216
1445.85	192
1451.23	180
1456.61	168
1461.98	152
1467.35	156
1472.71	166
1478.07	140
1483.42	122
1488.77	122
1494.11	120
1499.45	110
1504.78	106
1510.11	116
1515.43	106
1520.74	114
1526.05	108
1531.36	108
1536.66	102
1541.95	112
1547.24	110
1552.52	104
1557.8	106
1563.08	116
1568.35	114
1573.61	122
1578.87	140
1584.12	174
1589.37	244
1594.61	336
1599.85	476
1605.08	446
1610.31	358
1615.53	248
1620.75	170
1625.96	130
1631.17	110
1636.37	102
1641.57	94
1646.76	82
1651.95	94
1657.13	78
1662.31	84
1667.48	78
1672.65	76
1677.81	76
1682.97	78
1688.12	84
1693.27	86
1698.41	76
1702.26	76