File: Mixture_Classification/Jesse_Dataset_v2/Pure Raman/Polypropylene oxide/785nm/ps-ppo-6jan25-0,0000-map2_Y03_X10.txt
204.377	382
211.048	356
217.712	358
224.369	484
231.019	906
237.661	924
244.297	662
250.924	406
257.546	284
264.16	218
270.766	188
277.365	196
283.958	246
290.543	380
297.121	440
303.693	322
310.256	266
316.813	238
323.362	228
329.905	250
336.441	262
342.969	224
349.491	226
356.006	224
362.513	208
369.014	192
375.508	200
381.994	150
388.473	144
394.947	132
401.412	132
407.871	160
414.323	224
420.768	168
427.206	130
433.637	106
440.062	88
446.479	82
452.89	84
459.293	92
465.691	100
472.081	158
478.463	230
484.84	308
491.21	188
497.573	112
503.929	92
510.279	166
516.621	166
522.957	164
529.287	226
535.609	398
541.925	420
548.234	222
554.536	220
560.832	418
567.12	1500
573.403	2028
579.679	500
585.948	354
592.211	264
598.466	208
604.715	116
610.958	102
617.194	100
623.424	108
629.647	136
635.864	172
642.074	132
648.276	110
654.473	84
660.664	66
666.847	64
673.025	64
679.195	62
685.36	66
691.517	58
697.669	60
703.814	66
709.953	88
716.085	104
722.21	78
728.33	86
734.443	78
740.549	96
746.65	144
752.743	124
758.831	104
764.912	72
770.986	72
777.055	78
783.117	82
789.173	74
795.222	62
801.265	66
807.302	78
813.333	70
819.357	84
825.376	136
831.387	522
837.392	274
843.392	104
849.386	94
855.372	94
861.353	86
867.328	74
873.296	70
879.258	60
885.214	62
891.164	60
897.108	58
903.046	56
908.977	62
914.903	58
920.822	60
926.735	64
932.643	68
938.543	72
944.439	98
950.328	158
956.21	296
962.088	380
967.958	240
973.824	134
979.682	82
985.534	78
991.382	74
997.222	68
1003.06	62
1008.89	62
1014.71	68
1020.53	76
1026.34	80
1032.14	90
1037.94	96
1043.73	84
1049.52	70
1055.3	70
1061.08	62
1066.85	68
1072.61	68
1078.37	68
1084.12	66
1089.87	70
1095.61	74
1101.34	80
1107.07	144
1112.8	384
1118.51	160
1124.22	98
1129.93	82
1135.63	78
1141.32	92
1147.01	76
1152.69	82
1158.37	88
1164.04	94
1169.71	84
1175.37	106
1181.02	142
1186.67	236
1192.31	166
1197.95	164
1203.58	172
1209.2	136
1214.82	94
1220.44	102
1226.05	116
1231.65	132
1237.25	100
1242.84	80
1248.42	84
1254	86
1259.58	86
1265.15	94
1270.71	96
1276.27	102
1281.82	122
1287.37	140
1292.91	196
1298.45	344
1303.98	764
1309.5	532
1315.02	276
1320.53	198
1326.04	184
1331.54	178
1337.04	158
1342.53	158
1348.02	166
1353.5	164
1358.98	156
1364.45	150
1369.91	190
1375.37	348
1380.82	430
1386.27	278
1391.71	160
1397.15	146
1402.58	140
1408.01	134
1413.43	148
1418.85	160
1424.26	172
1429.66	194
1435.06	206
1440.46	230
1445.85	198
1451.23	186
1456.61	160
1461.98	170
1467.35	146
1472.71	146
1478.07	148
1483.42	146
1488.77	124
1494.11	118
1499.45	132
1504.78	116
1510.11	118
1515.43	120
1520.74	104
1526.05	112
1531.36	100
1536.66	110
1541.95	114
1547.24	120
1552.52	112
1557.8	112
1563.08	116
1568.35	126
1573.61	136
1578.87	152
1584.12	192
1589.37	254
1594.61	342
1599.85	450
1605.08	454
1610.31	346
1615.53	250
1620.75	174
1625.96	122
1631.17	110
1636.37	94
1641.57	92
1646.76	82
1651.95	88
1657.13	74
1662.31	88
1667.48	80
1672.65	84
1677.81	80
1682.97	76
1688.12	76
1693.27	70
1698.41	86
1702.26	78