File: Mixture_Classification/Jesse_Dataset_v2/Pure Raman/Polypropylene oxide/785nm/ps-ppo-6jan25-0,0000-map2_Y04_X04.txt
204.377	356
211.048	340
217.712	336
224.369	458
231.019	876
237.661	912
244.297	638
250.924	406
257.546	272
264.16	200
270.766	166
277.365	186
283.958	244
290.543	366
297.121	420
303.693	326
310.256	240
316.813	226
323.362	222
329.905	248
336.441	252
342.969	212
349.491	212
356.006	226
362.513	186
369.014	184
375.508	194
381.994	152
388.473	134
394.947	128
401.412	124
407.871	144
414.323	212
420.768	166
427.206	118
433.637	100
440.062	82
446.479	88
452.89	80
459.293	82
465.691	98
472.081	152
478.463	222
484.84	298
491.21	168
497.573	108
503.929	102
510.279	162
516.621	166
522.957	148
529.287	212
535.609	384
541.925	416
548.234	236
554.536	218
560.832	390
567.12	1442
573.403	1910
579.679	468
585.948	340
592.211	270
598.466	202
604.715	110
610.958	82
617.194	92
623.424	106
629.647	134
635.864	148
642.074	122
648.276	96
654.473	82
660.664	68
666.847	64
673.025	62
679.195	56
685.36	58
691.517	62
697.669	56
703.814	66
709.953	74
716.085	86
722.21	78
728.33	72
734.443	84
740.549	84
746.65	124
752.743	104
758.831	92
764.912	66
770.986	72
777.055	72
783.117	80
789.173	76
795.222	62
801.265	64
807.302	82
813.333	78
819.357	82
825.376	128
831.387	486
837.392	246
843.392	110
849.386	86
855.372	80
861.353	80
867.328	68
873.296	68
879.258	60
885.214	64
891.164	60
897.108	58
903.046	56
908.977	56
914.903	48
920.822	60
926.735	60
932.643	62
938.543	68
944.439	86
950.328	148
956.21	304
962.088	342
967.958	220
973.824	130
979.682	86
985.534	68
991.382	72
997.222	66
1003.06	54
1008.89	60
1014.71	64
1020.53	76
1026.34	84
1032.14	92
1037.94	86
1043.73	82
1049.52	66
1055.3	66
1061.08	60
1066.85	64
1072.61	60
1078.37	62
1084.12	68
1089.87	66
1095.61	64
1101.34	82
1107.07	140
1112.8	338
1118.51	154
1124.22	106
1129.93	82
1135.63	84
1141.32	80
1147.01	76
1152.69	80
1158.37	88
1164.04	92
1169.71	84
1175.37	102
1181.02	152
1186.67	240
1192.31	158
1197.95	150
1203.58	180
1209.2	128
1214.82	88
1220.44	90
1226.05	112
1231.65	138
1237.25	100
1242.84	84
1248.42	88
1254	86
1259.58	88
1265.15	90
1270.71	96
1276.27	108
1281.82	134
1287.37	142
1292.91	190
1298.45	342
1303.98	742
1309.5	508
1315.02	248
1320.53	182
1326.04	164
1331.54	166
1337.04	142
1342.53	136
1348.02	164
1353.5	152
1358.98	150
1364.45	154
1369.91	174
1375.37	348
1380.82	410
1386.27	274
1391.71	158
1397.15	136
1402.58	134
1408.01	128
1413.43	150
1418.85	166
1424.26	174
1429.66	194
1435.06	204
1440.46	190
1445.85	192
1451.23	174
1456.61	148
1461.98	152
1467.35	154
1472.71	150
1478.07	140
1483.42	136
1488.77	118
1494.11	122
1499.45	112
1504.78	122
1510.11	110
1515.43	104
1520.74	114
1526.05	118
1531.36	106
1536.66	116
1541.95	108
1547.24	104
1552.52	112
1557.8	102
1563.08	114
1568.35	110
1573.61	126
1578.87	130
1584.12	172
1589.37	228
1594.61	334
1599.85	452
1605.08	448
1610.31	342
1615.53	254
1620.75	164
1625.96	132
1631.17	110
1636.37	94
1641.57	92
1646.76	78
1651.95	90
1657.13	78
1662.31	82
1667.48	82
1672.65	82
1677.81	76
1682.97	78
1688.12	90
1693.27	82
1698.41	72
1702.26	82