File: Mixture_Classification/Jesse_Dataset_v2/Pure Raman/Polypropylene oxide/785nm/ps-ppo-6jan25-0,0000-map2_Y08_X01.txt
204.377	346
211.048	294
217.712	326
224.369	450
231.019	862
237.661	868
244.297	612
250.924	368
257.546	262
264.16	188
270.766	168
277.365	182
283.958	212
290.543	356
297.121	420
303.693	326
310.256	252
316.813	212
323.362	234
329.905	256
336.441	236
342.969	196
349.491	188
356.006	210
362.513	194
369.014	190
375.508	182
381.994	140
388.473	136
394.947	118
401.412	136
407.871	144
414.323	216
420.768	148
427.206	122
433.637	100
440.062	82
446.479	70
452.89	82
459.293	82
465.691	94
472.081	134
478.463	214
484.84	282
491.21	164
497.573	108
503.929	108
510.279	150
516.621	166
522.957	156
529.287	222
535.609	378
541.925	406
548.234	206
554.536	206
560.832	380
567.12	1388
573.403	1912
579.679	468
585.948	326
592.211	258
598.466	204
604.715	110
610.958	88
617.194	100
623.424	104
629.647	128
635.864	146
642.074	122
648.276	102
654.473	86
660.664	62
666.847	72
673.025	64
679.195	56
685.36	58
691.517	56
697.669	66
703.814	62
709.953	78
716.085	94
722.21	68
728.33	76
734.443	80
740.549	86
746.65	140
752.743	112
758.831	90
764.912	66
770.986	64
777.055	86
783.117	72
789.173	74
795.222	70
801.265	66
807.302	74
813.333	78
819.357	86
825.376	128
831.387	470
837.392	238
843.392	92
849.386	90
855.372	86
861.353	84
867.328	70
873.296	70
879.258	58
885.214	58
891.164	48
897.108	60
903.046	58
908.977	62
914.903	58
920.822	54
926.735	62
932.643	64
938.543	70
944.439	86
950.328	142
956.21	292
962.088	366
967.958	210
973.824	142
979.682	82
985.534	80
991.382	78
997.222	60
1003.06	60
1008.89	60
1014.71	64
1020.53	78
1026.34	78
1032.14	90
1037.94	90
1043.73	84
1049.52	70
1055.3	62
1061.08	64
1066.85	56
1072.61	56
1078.37	58
1084.12	66
1089.87	70
1095.61	68
1101.34	74
1107.07	128
1112.8	342
1118.51	136
1124.22	96
1129.93	84
1135.63	76
1141.32	86
1147.01	74
1152.69	68
1158.37	84
1164.04	90
1169.71	76
1175.37	94
1181.02	146
1186.67	234
1192.31	152
1197.95	140
1203.58	160
1209.2	122
1214.82	100
1220.44	78
1226.05	106
1231.65	126
1237.25	104
1242.84	84
1248.42	76
1254	78
1259.58	80
1265.15	92
1270.71	96
1276.27	108
1281.82	122
1287.37	144
1292.91	174
1298.45	322
1303.98	720
1309.5	488
1315.02	238
1320.53	180
1326.04	178
1331.54	164
1337.04	146
1342.53	138
1348.02	154
1353.5	158
1358.98	148
1364.45	140
1369.91	166
1375.37	336
1380.82	402
1386.27	266
1391.71	160
1397.15	142
1402.58	120
1408.01	130
1413.43	142
1418.85	152
1424.26	168
1429.66	166
1435.06	188
1440.46	212
1445.85	182
1451.23	164
1456.61	156
1461.98	154
1467.35	144
1472.71	146
1478.07	148
1483.42	132
1488.77	114
1494.11	104
1499.45	106
1504.78	106
1510.11	110
1515.43	110
1520.74	100
1526.05	104
1531.36	98
1536.66	106
1541.95	116
1547.24	100
1552.52	98
1557.8	110
1563.08	104
1568.35	110
1573.61	108
1578.87	142
1584.12	168
1589.37	242
1594.61	326
1599.85	434
1605.08	416
1610.31	342
1615.53	230
1620.75	164
1625.96	124
1631.17	104
1636.37	86
1641.57	86
1646.76	80
1651.95	84
1657.13	80
1662.31	82
1667.48	72
1672.65	74
1677.81	80
1682.97	74
1688.12	88
1693.27	70
1698.41	74
1702.26	80