File: Mixture_Classification/Jesse_Dataset_v2/Pure Raman/Polypropylene oxide/785nm/ps-ppo-6jan25-0,0000-map2_Y09_X02.txt
204.377	358
211.048	282
217.712	310
224.369	420
231.019	820
237.661	798
244.297	564
250.924	368
257.546	248
264.16	188
270.766	162
277.365	160
283.958	214
290.543	336
297.121	378
303.693	280
310.256	252
316.813	202
323.362	206
329.905	226
336.441	226
342.969	200
349.491	190
356.006	204
362.513	176
369.014	174
375.508	172
381.994	132
388.473	126
394.947	116
401.412	122
407.871	140
414.323	200
420.768	146
427.206	112
433.637	82
440.062	82
446.479	74
452.89	64
459.293	78
465.691	98
472.081	138
478.463	190
484.84	256
491.21	156
497.573	98
503.929	86
510.279	148
516.621	162
522.957	142
529.287	200
535.609	370
541.925	368
548.234	200
554.536	198
560.832	364
567.12	1292
573.403	1740
579.679	442
585.948	294
592.211	232
598.466	202
604.715	112
610.958	88
617.194	90
623.424	96
629.647	124
635.864	134
642.074	116
648.276	98
654.473	80
660.664	72
666.847	60
673.025	56
679.195	58
685.36	56
691.517	56
697.669	54
703.814	66
709.953	76
716.085	92
722.21	78
728.33	68
734.443	78
740.549	82
746.65	130
752.743	104
758.831	86
764.912	72
770.986	64
777.055	70
783.117	70
789.173	64
795.222	56
801.265	64
807.302	70
813.333	68
819.357	84
825.376	122
831.387	434
837.392	224
843.392	100
849.386	88
855.372	84
861.353	78
867.328	62
873.296	62
879.258	58
885.214	56
891.164	60
897.108	54
903.046	50
908.977	56
914.903	58
920.822	50
926.735	56
932.643	58
938.543	64
944.439	90
950.328	128
956.21	282
962.088	320
967.958	206
973.824	124
979.682	82
985.534	70
991.382	62
997.222	72
1003.06	66
1008.89	60
1014.71	60
1020.53	74
1026.34	84
1032.14	82
1037.94	90
1043.73	80
1049.52	70
1055.3	68
1061.08	60
1066.85	52
1072.61	62
1078.37	68
1084.12	62
1089.87	58
1095.61	68
1101.34	72
1107.07	134
1112.8	310
1118.51	142
1124.22	90
1129.93	82
1135.63	80
1141.32	84
1147.01	68
1152.69	66
1158.37	76
1164.04	82
1169.71	78
1175.37	96
1181.02	116
1186.67	220
1192.31	140
1197.95	148
1203.58	164
1209.2	116
1214.82	86
1220.44	88
1226.05	102
1231.65	114
1237.25	88
1242.84	82
1248.42	72
1254	76
1259.58	80
1265.15	90
1270.71	90
1276.27	104
1281.82	110
1287.37	142
1292.91	176
1298.45	310
1303.98	686
1309.5	490
1315.02	248
1320.53	176
1326.04	170
1331.54	162
1337.04	134
1342.53	132
1348.02	154
1353.5	154
1358.98	144
1364.45	134
1369.91	168
1375.37	316
1380.82	376
1386.27	246
1391.71	150
1397.15	128
1402.58	124
1408.01	122
1413.43	140
1418.85	154
1424.26	172
1429.66	172
1435.06	190
1440.46	196
1445.85	166
1451.23	146
1456.61	146
1461.98	138
1467.35	144
1472.71	140
1478.07	130
1483.42	120
1488.77	110
1494.11	110
1499.45	102
1504.78	106
1510.11	104
1515.43	106
1520.74	110
1526.05	102
1531.36	108
1536.66	104
1541.95	104
1547.24	94
1552.52	100
1557.8	94
1563.08	106
1568.35	114
1573.61	112
1578.87	132
1584.12	148
1589.37	216
1594.61	302
1599.85	412
1605.08	424
1610.31	332
1615.53	212
1620.75	150
1625.96	120
1631.17	114
1636.37	102
1641.57	78
1646.76	78
1651.95	74
1657.13	82
1662.31	70
1667.48	80
1672.65	72
1677.81	72
1682.97	80
1688.12	86
1693.27	68
1698.41	74
1702.26	76