File: Mixture_Classification/Jesse_Dataset_v2/Pure Raman/Polypropylene oxide/785nm/ps-ppo-6jan25-0,0000-map2_Y01_X03.txt
204.377	418
211.048	342
217.712	350
224.369	500
231.019	954
237.661	958
244.297	672
250.924	404
257.546	282
264.16	202
270.766	192
277.365	172
283.958	252
290.543	388
297.121	422
303.693	336
310.256	260
316.813	248
323.362	234
329.905	258
336.441	260
342.969	222
349.491	232
356.006	234
362.513	196
369.014	188
375.508	184
381.994	152
388.473	132
394.947	122
401.412	128
407.871	158
414.323	222
420.768	172
427.206	132
433.637	104
440.062	80
446.479	82
452.89	82
459.293	76
465.691	108
472.081	150
478.463	234
484.84	310
491.21	170
497.573	112
503.929	102
510.279	166
516.621	170
522.957	160
529.287	232
535.609	438
541.925	426
548.234	216
554.536	220
560.832	408
567.12	1500
573.403	2096
579.679	528
585.948	346
592.211	276
598.466	226
604.715	114
610.958	96
617.194	94
623.424	116
629.647	142
635.864	150
642.074	124
648.276	100
654.473	90
660.664	80
666.847	68
673.025	64
679.195	62
685.36	64
691.517	64
697.669	66
703.814	68
709.953	88
716.085	94
722.21	74
728.33	80
734.443	84
740.549	86
746.65	138
752.743	112
758.831	90
764.912	78
770.986	72
777.055	82
783.117	70
789.173	66
795.222	64
801.265	70
807.302	74
813.333	74
819.357	86
825.376	136
831.387	506
837.392	258
843.392	104
849.386	94
855.372	84
861.353	84
867.328	70
873.296	62
879.258	60
885.214	66
891.164	52
897.108	58
903.046	64
908.977	62
914.903	64
920.822	66
926.735	56
932.643	70
938.543	76
944.439	98
950.328	156
956.21	316
962.088	380
967.958	234
973.824	146
979.682	96
985.534	76
991.382	78
997.222	70
1003.06	60
1008.89	68
1014.71	70
1020.53	82
1026.34	88
1032.14	104
1037.94	94
1043.73	86
1049.52	72
1055.3	64
1061.08	64
1066.85	70
1072.61	56
1078.37	68
1084.12	62
1089.87	70
1095.61	70
1101.34	86
1107.07	146
1112.8	358
1118.51	164
1124.22	108
1129.93	98
1135.63	88
1141.32	92
1147.01	86
1152.69	70
1158.37	86
1164.04	98
1169.71	86
1175.37	100
1181.02	146
1186.67	266
1192.31	176
1197.95	164
1203.58	182
1209.2	138
1214.82	92
1220.44	92
1226.05	108
1231.65	136
1237.25	102
1242.84	92
1248.42	80
1254	92
1259.58	98
1265.15	100
1270.71	100
1276.27	116
1281.82	130
1287.37	162
1292.91	204
1298.45	348
1303.98	780
1309.5	574
1315.02	280
1320.53	216
1326.04	190
1331.54	174
1337.04	152
1342.53	154
1348.02	180
1353.5	172
1358.98	156
1364.45	154
1369.91	178
1375.37	362
1380.82	446
1386.27	292
1391.71	164
1397.15	142
1402.58	138
1408.01	142
1413.43	150
1418.85	164
1424.26	190
1429.66	196
1435.06	214
1440.46	232
1445.85	204
1451.23	166
1456.61	164
1461.98	162
1467.35	160
1472.71	144
1478.07	156
1483.42	146
1488.77	122
1494.11	120
1499.45	124
1504.78	130
1510.11	114
1515.43	108
1520.74	104
1526.05	114
1531.36	106
1536.66	124
1541.95	106
1547.24	112
1552.52	104
1557.8	112
1563.08	116
1568.35	118
1573.61	126
1578.87	144
1584.12	182
1589.37	248
1594.61	348
1599.85	466
1605.08	502
1610.31	366
1615.53	252
1620.75	170
1625.96	138
1631.17	116
1636.37	94
1641.57	96
1646.76	84
1651.95	92
1657.13	86
1662.31	86
1667.48	74
1672.65	78
1677.81	78
1682.97	68
1688.12	76
1693.27	78
1698.41	72
1702.26	80