File: Mixture_Classification/Jesse_Dataset_v2/Pure Raman/Polypropylene oxide/785nm/ps-ppo-6jan25-0,0000-map2_Y06_X07.txt
204.377	372
211.048	318
217.712	324
224.369	478
231.019	902
237.661	908
244.297	664
250.924	394
257.546	270
264.16	200
270.766	170
277.365	168
283.958	216
290.543	376
297.121	428
303.693	318
310.256	246
316.813	234
323.362	226
329.905	254
336.441	242
342.969	210
349.491	216
356.006	216
362.513	188
369.014	198
375.508	182
381.994	162
388.473	132
394.947	122
401.412	126
407.871	148
414.323	214
420.768	162
427.206	112
433.637	96
440.062	90
446.479	72
452.89	74
459.293	76
465.691	102
472.081	152
478.463	226
484.84	288
491.21	168
497.573	110
503.929	88
510.279	160
516.621	178
522.957	160
529.287	214
535.609	390
541.925	422
548.234	222
554.536	208
560.832	392
567.12	1452
573.403	1974
579.679	504
585.948	336
592.211	276
598.466	198
604.715	110
610.958	88
617.194	92
623.424	106
629.647	132
635.864	140
642.074	116
648.276	96
654.473	80
660.664	72
666.847	54
673.025	64
679.195	52
685.36	64
691.517	56
697.669	60
703.814	64
709.953	72
716.085	94
722.21	80
728.33	72
734.443	78
740.549	90
746.65	132
752.743	120
758.831	84
764.912	56
770.986	70
777.055	76
783.117	68
789.173	66
795.222	66
801.265	68
807.302	72
813.333	68
819.357	86
825.376	128
831.387	468
837.392	240
843.392	98
849.386	92
855.372	86
861.353	76
867.328	74
873.296	62
879.258	64
885.214	58
891.164	58
897.108	50
903.046	58
908.977	50
914.903	58
920.822	58
926.735	50
932.643	62
938.543	56
944.439	90
950.328	142
956.21	300
962.088	372
967.958	226
973.824	134
979.682	80
985.534	70
991.382	70
997.222	64
1003.06	58
1008.89	66
1014.71	66
1020.53	76
1026.34	84
1032.14	98
1037.94	92
1043.73	80
1049.52	62
1055.3	58
1061.08	62
1066.85	54
1072.61	62
1078.37	64
1084.12	72
1089.87	60
1095.61	70
1101.34	80
1107.07	144
1112.8	364
1118.51	152
1124.22	98
1129.93	84
1135.63	72
1141.32	84
1147.01	62
1152.69	70
1158.37	84
1164.04	88
1169.71	82
1175.37	98
1181.02	144
1186.67	236
1192.31	170
1197.95	154
1203.58	188
1209.2	132
1214.82	96
1220.44	86
1226.05	110
1231.65	128
1237.25	98
1242.84	86
1248.42	82
1254	94
1259.58	94
1265.15	92
1270.71	102
1276.27	108
1281.82	132
1287.37	154
1292.91	178
1298.45	344
1303.98	762
1309.5	502
1315.02	272
1320.53	204
1326.04	186
1331.54	160
1337.04	144
1342.53	146
1348.02	164
1353.5	152
1358.98	146
1364.45	152
1369.91	166
1375.37	346
1380.82	424
1386.27	274
1391.71	158
1397.15	154
1402.58	136
1408.01	118
1413.43	140
1418.85	152
1424.26	180
1429.66	180
1435.06	208
1440.46	210
1445.85	184
1451.23	164
1456.61	164
1461.98	158
1467.35	138
1472.71	146
1478.07	132
1483.42	132
1488.77	124
1494.11	116
1499.45	112
1504.78	128
1510.11	114
1515.43	116
1520.74	114
1526.05	104
1531.36	100
1536.66	110
1541.95	108
1547.24	102
1552.52	112
1557.8	110
1563.08	106
1568.35	118
1573.61	128
1578.87	128
1584.12	182
1589.37	236
1594.61	328
1599.85	450
1605.08	456
1610.31	370
1615.53	274
1620.75	170
1625.96	128
1631.17	114
1636.37	96
1641.57	96
1646.76	76
1651.95	82
1657.13	82
1662.31	72
1667.48	82
1672.65	76
1677.81	76
1682.97	82
1688.12	80
1693.27	78
1698.41	82
1702.26	80