File: Mixture_Classification/Jesse_Dataset_v2/Pure Raman/Polypropylene oxide/785nm/ps-ppo-6jan25-0,0000-map2_Y00_X02.txt
204.377	394
211.048	364
217.712	346
224.369	480
231.019	920
237.661	934
244.297	658
250.924	398
257.546	288
264.16	198
270.766	176
277.365	188
283.958	238
290.543	396
297.121	434
303.693	318
310.256	260
316.813	234
323.362	240
329.905	258
336.441	268
342.969	204
349.491	210
356.006	208
362.513	206
369.014	212
375.508	200
381.994	168
388.473	142
394.947	128
401.412	136
407.871	162
414.323	208
420.768	162
427.206	108
433.637	98
440.062	88
446.479	80
452.89	82
459.293	82
465.691	106
472.081	162
478.463	234
484.84	292
491.21	186
497.573	120
503.929	110
510.279	152
516.621	168
522.957	148
529.287	234
535.609	426
541.925	412
548.234	220
554.536	198
560.832	390
567.12	1456
573.403	2022
579.679	498
585.948	362
592.211	282
598.466	206
604.715	118
610.958	92
617.194	92
623.424	108
629.647	124
635.864	156
642.074	132
648.276	104
654.473	86
660.664	82
666.847	74
673.025	66
679.195	66
685.36	64
691.517	66
697.669	72
703.814	68
709.953	84
716.085	108
722.21	80
728.33	74
734.443	78
740.549	96
746.65	134
752.743	116
758.831	96
764.912	70
770.986	68
777.055	82
783.117	82
789.173	68
795.222	68
801.265	70
807.302	78
813.333	82
819.357	82
825.376	146
831.387	464
837.392	262
843.392	110
849.386	100
855.372	96
861.353	84
867.328	86
873.296	72
879.258	66
885.214	66
891.164	64
897.108	58
903.046	58
908.977	58
914.903	64
920.822	56
926.735	60
932.643	62
938.543	70
944.439	86
950.328	142
956.21	320
962.088	374
967.958	234
973.824	122
979.682	72
985.534	72
991.382	82
997.222	68
1003.06	62
1008.89	66
1014.71	76
1020.53	74
1026.34	88
1032.14	108
1037.94	100
1043.73	94
1049.52	72
1055.3	74
1061.08	70
1066.85	66
1072.61	66
1078.37	70
1084.12	62
1089.87	66
1095.61	72
1101.34	88
1107.07	136
1112.8	340
1118.51	164
1124.22	102
1129.93	100
1135.63	82
1141.32	86
1147.01	80
1152.69	78
1158.37	94
1164.04	94
1169.71	88
1175.37	94
1181.02	146
1186.67	252
1192.31	166
1197.95	160
1203.58	188
1209.2	136
1214.82	98
1220.44	82
1226.05	112
1231.65	134
1237.25	98
1242.84	90
1248.42	84
1254	88
1259.58	96
1265.15	86
1270.71	88
1276.27	110
1281.82	134
1287.37	158
1292.91	190
1298.45	342
1303.98	776
1309.5	540
1315.02	262
1320.53	194
1326.04	178
1331.54	168
1337.04	152
1342.53	154
1348.02	180
1353.5	164
1358.98	158
1364.45	134
1369.91	184
1375.37	314
1380.82	418
1386.27	260
1391.71	172
1397.15	148
1402.58	140
1408.01	144
1413.43	144
1418.85	160
1424.26	186
1429.66	178
1435.06	200
1440.46	210
1445.85	194
1451.23	176
1456.61	162
1461.98	164
1467.35	150
1472.71	160
1478.07	150
1483.42	136
1488.77	130
1494.11	120
1499.45	114
1504.78	120
1510.11	114
1515.43	108
1520.74	100
1526.05	94
1531.36	110
1536.66	114
1541.95	118
1547.24	122
1552.52	100
1557.8	104
1563.08	116
1568.35	108
1573.61	132
1578.87	156
1584.12	186
1589.37	234
1594.61	318
1599.85	472
1605.08	456
1610.31	346
1615.53	252
1620.75	174
1625.96	138
1631.17	118
1636.37	102
1641.57	90
1646.76	86
1651.95	78
1657.13	78
1662.31	80
1667.48	88
1672.65	80
1677.81	76
1682.97	80
1688.12	84
1693.27	82
1698.41	74
1702.26	86