File: Mixture_Classification/Jesse_Dataset_v2/Pure Raman/Polypropylene oxide/785nm/ps-ppo-6jan25-0,0000-map2_Y02_X09.txt
204.377	378
211.048	338
217.712	342
224.369	498
231.019	946
237.661	908
244.297	672
250.924	422
257.546	282
264.16	228
270.766	176
277.365	186
283.958	232
290.543	374
297.121	422
303.693	336
310.256	264
316.813	232
323.362	250
329.905	254
336.441	268
342.969	222
349.491	216
356.006	222
362.513	208
369.014	194
375.508	198
381.994	154
388.473	128
394.947	128
401.412	138
407.871	158
414.323	228
420.768	164
427.206	118
433.637	96
440.062	78
446.479	80
452.89	78
459.293	88
465.691	102
472.081	154
478.463	228
484.84	298
491.21	176
497.573	112
503.929	106
510.279	168
516.621	170
522.957	172
529.287	240
535.609	398
541.925	418
548.234	230
554.536	202
560.832	404
567.12	1478
573.403	2084
579.679	534
585.948	340
592.211	266
598.466	214
604.715	110
610.958	90
617.194	92
623.424	114
629.647	138
635.864	148
642.074	132
648.276	94
654.473	84
660.664	80
666.847	60
673.025	58
679.195	60
685.36	72
691.517	64
697.669	60
703.814	66
709.953	90
716.085	100
722.21	76
728.33	78
734.443	78
740.549	90
746.65	146
752.743	132
758.831	102
764.912	74
770.986	78
777.055	78
783.117	78
789.173	70
795.222	66
801.265	76
807.302	80
813.333	74
819.357	80
825.376	132
831.387	482
837.392	258
843.392	110
849.386	98
855.372	84
861.353	74
867.328	74
873.296	64
879.258	56
885.214	58
891.164	60
897.108	56
903.046	56
908.977	48
914.903	58
920.822	52
926.735	58
932.643	66
938.543	70
944.439	92
950.328	164
956.21	294
962.088	388
967.958	246
973.824	142
979.682	86
985.534	76
991.382	76
997.222	66
1003.06	60
1008.89	70
1014.71	72
1020.53	82
1026.34	84
1032.14	106
1037.94	96
1043.73	82
1049.52	64
1055.3	68
1061.08	60
1066.85	68
1072.61	58
1078.37	64
1084.12	74
1089.87	64
1095.61	74
1101.34	82
1107.07	134
1112.8	370
1118.51	166
1124.22	106
1129.93	94
1135.63	88
1141.32	84
1147.01	78
1152.69	76
1158.37	76
1164.04	94
1169.71	86
1175.37	108
1181.02	140
1186.67	242
1192.31	180
1197.95	166
1203.58	182
1209.2	120
1214.82	90
1220.44	86
1226.05	116
1231.65	138
1237.25	104
1242.84	84
1248.42	84
1254	86
1259.58	94
1265.15	94
1270.71	106
1276.27	100
1281.82	134
1287.37	168
1292.91	200
1298.45	368
1303.98	776
1309.5	524
1315.02	278
1320.53	176
1326.04	194
1331.54	172
1337.04	146
1342.53	152
1348.02	172
1353.5	168
1358.98	160
1364.45	162
1369.91	168
1375.37	356
1380.82	438
1386.27	284
1391.71	172
1397.15	134
1402.58	138
1408.01	142
1413.43	142
1418.85	166
1424.26	190
1429.66	208
1435.06	196
1440.46	208
1445.85	202
1451.23	170
1456.61	164
1461.98	162
1467.35	158
1472.71	160
1478.07	154
1483.42	142
1488.77	126
1494.11	122
1499.45	132
1504.78	116
1510.11	122
1515.43	112
1520.74	108
1526.05	116
1531.36	106
1536.66	116
1541.95	108
1547.24	110
1552.52	118
1557.8	118
1563.08	132
1568.35	114
1573.61	136
1578.87	156
1584.12	182
1589.37	256
1594.61	366
1599.85	482
1605.08	458
1610.31	378
1615.53	264
1620.75	176
1625.96	130
1631.17	110
1636.37	100
1641.57	92
1646.76	86
1651.95	82
1657.13	78
1662.31	82
1667.48	80
1672.65	84
1677.81	80
1682.97	80
1688.12	78
1693.27	90
1698.41	80
1702.26	84