File: Mixture_Classification/Jesse_Dataset_v2/Pure Raman/Polypropylene oxide/785nm/ps-ppo-6jan25-0,0000-map2_Y06_X01.txt
204.377	370
211.048	346
217.712	338
224.369	488
231.019	942
237.661	932
244.297	624
250.924	420
257.546	276
264.16	224
270.766	180
277.365	190
283.958	234
290.543	376
297.121	460
303.693	358
310.256	274
316.813	222
323.362	224
329.905	258
336.441	246
342.969	220
349.491	232
356.006	222
362.513	194
369.014	204
375.508	202
381.994	146
388.473	134
394.947	134
401.412	134
407.871	156
414.323	224
420.768	174
427.206	120
433.637	96
440.062	80
446.479	74
452.89	86
459.293	82
465.691	112
472.081	158
478.463	222
484.84	296
491.21	174
497.573	118
503.929	102
510.279	162
516.621	180
522.957	148
529.287	236
535.609	412
541.925	430
548.234	224
554.536	214
560.832	422
567.12	1458
573.403	2020
579.679	506
585.948	320
592.211	282
598.466	210
604.715	116
610.958	96
617.194	104
623.424	112
629.647	138
635.864	158
642.074	128
648.276	94
654.473	86
660.664	74
666.847	64
673.025	62
679.195	64
685.36	60
691.517	58
697.669	58
703.814	56
709.953	80
716.085	96
722.21	80
728.33	72
734.443	88
740.549	96
746.65	146
752.743	124
758.831	94
764.912	76
770.986	70
777.055	76
783.117	74
789.173	62
795.222	70
801.265	68
807.302	76
813.333	80
819.357	90
825.376	138
831.387	492
837.392	248
843.392	104
849.386	90
855.372	90
861.353	82
867.328	70
873.296	60
879.258	60
885.214	56
891.164	64
897.108	58
903.046	60
908.977	54
914.903	54
920.822	62
926.735	56
932.643	68
938.543	78
944.439	92
950.328	148
956.21	304
962.088	370
967.958	220
973.824	134
979.682	78
985.534	80
991.382	90
997.222	66
1003.06	68
1008.89	62
1014.71	68
1020.53	76
1026.34	84
1032.14	98
1037.94	102
1043.73	80
1049.52	80
1055.3	58
1061.08	58
1066.85	62
1072.61	64
1078.37	60
1084.12	64
1089.87	64
1095.61	72
1101.34	84
1107.07	138
1112.8	360
1118.51	158
1124.22	96
1129.93	98
1135.63	82
1141.32	86
1147.01	76
1152.69	76
1158.37	86
1164.04	104
1169.71	92
1175.37	98
1181.02	154
1186.67	246
1192.31	166
1197.95	158
1203.58	174
1209.2	128
1214.82	92
1220.44	82
1226.05	112
1231.65	134
1237.25	96
1242.84	92
1248.42	92
1254	80
1259.58	88
1265.15	102
1270.71	98
1276.27	98
1281.82	128
1287.37	152
1292.91	194
1298.45	376
1303.98	772
1309.5	538
1315.02	282
1320.53	196
1326.04	170
1331.54	190
1337.04	150
1342.53	144
1348.02	170
1353.5	160
1358.98	154
1364.45	142
1369.91	164
1375.37	348
1380.82	422
1386.27	268
1391.71	162
1397.15	140
1402.58	142
1408.01	136
1413.43	146
1418.85	158
1424.26	174
1429.66	172
1435.06	194
1440.46	214
1445.85	190
1451.23	176
1456.61	164
1461.98	166
1467.35	158
1472.71	138
1478.07	142
1483.42	128
1488.77	132
1494.11	114
1499.45	118
1504.78	116
1510.11	112
1515.43	112
1520.74	112
1526.05	112
1531.36	114
1536.66	106
1541.95	108
1547.24	104
1552.52	116
1557.8	116
1563.08	102
1568.35	110
1573.61	128
1578.87	146
1584.12	184
1589.37	236
1594.61	336
1599.85	452
1605.08	474
1610.31	390
1615.53	264
1620.75	160
1625.96	118
1631.17	114
1636.37	90
1641.57	96
1646.76	80
1651.95	88
1657.13	80
1662.31	90
1667.48	80
1672.65	76
1677.81	76
1682.97	80
1688.12	74
1693.27	90
1698.41	76
1702.26	78