File: Mixture_Classification/Jesse_Dataset_v2/Pure Raman/Polypropylene oxide/785nm/ps-ppo-6jan25-0,0000-map2_Y01_X04.txt
204.377	386
211.048	342
217.712	344
224.369	472
231.019	912
237.661	938
244.297	638
250.924	410
257.546	260
264.16	206
270.766	192
277.365	186
283.958	242
290.543	380
297.121	434
303.693	320
310.256	280
316.813	238
323.362	228
329.905	254
336.441	248
342.969	222
349.491	198
356.006	214
362.513	180
369.014	206
375.508	192
381.994	160
388.473	134
394.947	132
401.412	130
407.871	152
414.323	222
420.768	164
427.206	122
433.637	110
440.062	90
446.479	80
452.89	72
459.293	86
465.691	106
472.081	154
478.463	222
484.84	298
491.21	186
497.573	118
503.929	98
510.279	166
516.621	162
522.957	152
529.287	232
535.609	410
541.925	424
548.234	218
554.536	200
560.832	412
567.12	1472
573.403	2022
579.679	508
585.948	338
592.211	274
598.466	200
604.715	116
610.958	84
617.194	98
623.424	114
629.647	132
635.864	154
642.074	128
648.276	108
654.473	86
660.664	82
666.847	64
673.025	66
679.195	68
685.36	66
691.517	62
697.669	60
703.814	66
709.953	76
716.085	88
722.21	70
728.33	82
734.443	82
740.549	98
746.65	140
752.743	122
758.831	88
764.912	66
770.986	68
777.055	76
783.117	78
789.173	62
795.222	70
801.265	74
807.302	72
813.333	74
819.357	86
825.376	134
831.387	498
837.392	254
843.392	106
849.386	90
855.372	86
861.353	76
867.328	68
873.296	64
879.258	62
885.214	58
891.164	60
897.108	64
903.046	54
908.977	60
914.903	60
920.822	62
926.735	58
932.643	70
938.543	74
944.439	88
950.328	148
956.21	276
962.088	368
967.958	220
973.824	134
979.682	86
985.534	76
991.382	78
997.222	64
1003.06	66
1008.89	66
1014.71	70
1020.53	80
1026.34	82
1032.14	106
1037.94	94
1043.73	76
1049.52	66
1055.3	70
1061.08	62
1066.85	66
1072.61	60
1078.37	56
1084.12	66
1089.87	64
1095.61	68
1101.34	86
1107.07	140
1112.8	364
1118.51	156
1124.22	96
1129.93	84
1135.63	84
1141.32	84
1147.01	78
1152.69	82
1158.37	86
1164.04	96
1169.71	86
1175.37	102
1181.02	152
1186.67	242
1192.31	178
1197.95	154
1203.58	174
1209.2	132
1214.82	90
1220.44	88
1226.05	120
1231.65	130
1237.25	104
1242.84	88
1248.42	88
1254	88
1259.58	90
1265.15	94
1270.71	96
1276.27	108
1281.82	144
1287.37	162
1292.91	200
1298.45	334
1303.98	792
1309.5	546
1315.02	274
1320.53	196
1326.04	192
1331.54	164
1337.04	154
1342.53	152
1348.02	170
1353.5	164
1358.98	158
1364.45	148
1369.91	182
1375.37	356
1380.82	424
1386.27	290
1391.71	154
1397.15	158
1402.58	144
1408.01	146
1413.43	142
1418.85	158
1424.26	174
1429.66	186
1435.06	202
1440.46	224
1445.85	192
1451.23	182
1456.61	160
1461.98	164
1467.35	156
1472.71	146
1478.07	150
1483.42	150
1488.77	134
1494.11	124
1499.45	100
1504.78	116
1510.11	116
1515.43	106
1520.74	110
1526.05	106
1531.36	104
1536.66	112
1541.95	110
1547.24	102
1552.52	110
1557.8	112
1563.08	102
1568.35	114
1573.61	134
1578.87	146
1584.12	170
1589.37	244
1594.61	340
1599.85	500
1605.08	468
1610.31	360
1615.53	250
1620.75	178
1625.96	132
1631.17	104
1636.37	104
1641.57	98
1646.76	88
1651.95	82
1657.13	80
1662.31	92
1667.48	86
1672.65	90
1677.81	86
1682.97	82
1688.12	82
1693.27	78
1698.41	74
1702.26	80