File: Mixture_Classification/Jesse_Dataset_v2/Pure Raman/Polypropylene oxide/785nm/ps-ppo-6jan25-0,0000-map2_Y06_X05.txt
204.377	378
211.048	336
217.712	330
224.369	478
231.019	850
237.661	866
244.297	606
250.924	420
257.546	256
264.16	196
270.766	190
277.365	170
283.958	236
290.543	338
297.121	416
303.693	330
310.256	254
316.813	222
323.362	238
329.905	254
336.441	240
342.969	208
349.491	196
356.006	218
362.513	190
369.014	184
375.508	184
381.994	142
388.473	128
394.947	120
401.412	112
407.871	150
414.323	206
420.768	166
427.206	118
433.637	96
440.062	86
446.479	72
452.89	74
459.293	76
465.691	100
472.081	154
478.463	192
484.84	288
491.21	170
497.573	106
503.929	98
510.279	160
516.621	154
522.957	142
529.287	216
535.609	400
541.925	408
548.234	196
554.536	204
560.832	364
567.12	1410
573.403	1924
579.679	490
585.948	312
592.211	260
598.466	190
604.715	112
610.958	90
617.194	96
623.424	106
629.647	128
635.864	146
642.074	126
648.276	92
654.473	86
660.664	72
666.847	58
673.025	58
679.195	54
685.36	54
691.517	58
697.669	54
703.814	64
709.953	70
716.085	94
722.21	70
728.33	76
734.443	78
740.549	90
746.65	136
752.743	112
758.831	88
764.912	64
770.986	68
777.055	76
783.117	76
789.173	72
795.222	62
801.265	60
807.302	76
813.333	66
819.357	86
825.376	122
831.387	476
837.392	226
843.392	96
849.386	94
855.372	86
861.353	70
867.328	62
873.296	56
879.258	54
885.214	54
891.164	56
897.108	54
903.046	58
908.977	54
914.903	48
920.822	52
926.735	58
932.643	60
938.543	74
944.439	88
950.328	148
956.21	290
962.088	358
967.958	222
973.824	138
979.682	90
985.534	74
991.382	68
997.222	64
1003.06	60
1008.89	66
1014.71	68
1020.53	78
1026.34	82
1032.14	94
1037.94	90
1043.73	80
1049.52	66
1055.3	72
1061.08	62
1066.85	48
1072.61	58
1078.37	60
1084.12	56
1089.87	56
1095.61	64
1101.34	74
1107.07	132
1112.8	346
1118.51	148
1124.22	96
1129.93	76
1135.63	84
1141.32	76
1147.01	66
1152.69	64
1158.37	88
1164.04	92
1169.71	80
1175.37	92
1181.02	142
1186.67	248
1192.31	170
1197.95	144
1203.58	176
1209.2	134
1214.82	84
1220.44	80
1226.05	120
1231.65	120
1237.25	96
1242.84	90
1248.42	86
1254	94
1259.58	82
1265.15	96
1270.71	74
1276.27	98
1281.82	128
1287.37	146
1292.91	178
1298.45	326
1303.98	742
1309.5	494
1315.02	264
1320.53	206
1326.04	178
1331.54	170
1337.04	142
1342.53	146
1348.02	158
1353.5	156
1358.98	144
1364.45	146
1369.91	170
1375.37	322
1380.82	418
1386.27	262
1391.71	154
1397.15	134
1402.58	130
1408.01	126
1413.43	134
1418.85	144
1424.26	188
1429.66	174
1435.06	202
1440.46	204
1445.85	192
1451.23	164
1456.61	164
1461.98	156
1467.35	148
1472.71	142
1478.07	142
1483.42	128
1488.77	120
1494.11	110
1499.45	100
1504.78	114
1510.11	112
1515.43	110
1520.74	108
1526.05	98
1531.36	98
1536.66	104
1541.95	94
1547.24	114
1552.52	98
1557.8	96
1563.08	108
1568.35	110
1573.61	116
1578.87	148
1584.12	166
1589.37	220
1594.61	342
1599.85	452
1605.08	434
1610.31	340
1615.53	250
1620.75	154
1625.96	114
1631.17	104
1636.37	98
1641.57	90
1646.76	84
1651.95	72
1657.13	80
1662.31	72
1667.48	78
1672.65	88
1677.81	80
1682.97	76
1688.12	84
1693.27	74
1698.41	76
1702.26	76