File: Mixture_Classification/Jesse_Dataset_v2/Pure Raman/Polypropylene oxide/785nm/ps-ppo-6jan25-0,0000-map2_Y03_X01.txt
204.377	400
211.048	338
217.712	350
224.369	490
231.019	942
237.661	956
244.297	658
250.924	426
257.546	280
264.16	202
270.766	178
277.365	202
283.958	246
290.543	382
297.121	448
303.693	338
310.256	270
316.813	228
323.362	230
329.905	268
336.441	262
342.969	230
349.491	218
356.006	232
362.513	196
369.014	192
375.508	200
381.994	152
388.473	144
394.947	138
401.412	136
407.871	156
414.323	212
420.768	174
427.206	110
433.637	106
440.062	86
446.479	90
452.89	88
459.293	82
465.691	118
472.081	162
478.463	244
484.84	296
491.21	164
497.573	122
503.929	104
510.279	160
516.621	182
522.957	164
529.287	234
535.609	420
541.925	414
548.234	226
554.536	204
560.832	428
567.12	1494
573.403	2066
579.679	498
585.948	352
592.211	276
598.466	208
604.715	120
610.958	94
617.194	92
623.424	106
629.647	138
635.864	160
642.074	144
648.276	102
654.473	92
660.664	72
666.847	70
673.025	64
679.195	62
685.36	68
691.517	70
697.669	60
703.814	72
709.953	74
716.085	110
722.21	80
728.33	72
734.443	82
740.549	94
746.65	140
752.743	132
758.831	108
764.912	76
770.986	70
777.055	88
783.117	78
789.173	74
795.222	64
801.265	68
807.302	84
813.333	72
819.357	88
825.376	130
831.387	488
837.392	260
843.392	112
849.386	100
855.372	90
861.353	78
867.328	72
873.296	68
879.258	64
885.214	66
891.164	60
897.108	56
903.046	58
908.977	58
914.903	58
920.822	52
926.735	62
932.643	70
938.543	82
944.439	94
950.328	152
956.21	284
962.088	390
967.958	230
973.824	146
979.682	92
985.534	74
991.382	80
997.222	68
1003.06	70
1008.89	58
1014.71	72
1020.53	68
1026.34	86
1032.14	108
1037.94	102
1043.73	78
1049.52	70
1055.3	68
1061.08	62
1066.85	68
1072.61	66
1078.37	66
1084.12	64
1089.87	64
1095.61	66
1101.34	74
1107.07	146
1112.8	372
1118.51	152
1124.22	110
1129.93	80
1135.63	82
1141.32	100
1147.01	76
1152.69	74
1158.37	86
1164.04	92
1169.71	76
1175.37	102
1181.02	150
1186.67	242
1192.31	186
1197.95	162
1203.58	172
1209.2	134
1214.82	90
1220.44	94
1226.05	114
1231.65	128
1237.25	100
1242.84	92
1248.42	86
1254	84
1259.58	94
1265.15	82
1270.71	104
1276.27	102
1281.82	126
1287.37	164
1292.91	196
1298.45	362
1303.98	840
1309.5	522
1315.02	268
1320.53	196
1326.04	182
1331.54	174
1337.04	152
1342.53	148
1348.02	160
1353.5	162
1358.98	156
1364.45	150
1369.91	178
1375.37	350
1380.82	430
1386.27	292
1391.71	152
1397.15	142
1402.58	136
1408.01	138
1413.43	138
1418.85	172
1424.26	184
1429.66	192
1435.06	204
1440.46	218
1445.85	214
1451.23	182
1456.61	162
1461.98	162
1467.35	144
1472.71	154
1478.07	144
1483.42	140
1488.77	116
1494.11	128
1499.45	120
1504.78	122
1510.11	110
1515.43	112
1520.74	124
1526.05	110
1531.36	104
1536.66	108
1541.95	112
1547.24	116
1552.52	106
1557.8	110
1563.08	116
1568.35	126
1573.61	128
1578.87	156
1584.12	174
1589.37	230
1594.61	356
1599.85	472
1605.08	480
1610.31	338
1615.53	258
1620.75	178
1625.96	130
1631.17	106
1636.37	102
1641.57	94
1646.76	90
1651.95	82
1657.13	80
1662.31	80
1667.48	78
1672.65	76
1677.81	80
1682.97	86
1688.12	76
1693.27	88
1698.41	86
1702.26	74