File: Mixture_Classification/Jesse_Dataset_v2/Pure Raman/Polypropylene oxide/785nm/ps-ppo-6jan25-0,0000-map2_Y03_X02.txt
204.377	376
211.048	346
217.712	330
224.369	468
231.019	918
237.661	922
244.297	636
250.924	398
257.546	244
264.16	210
270.766	174
277.365	172
283.958	230
290.543	362
297.121	430
303.693	320
310.256	262
316.813	240
323.362	224
329.905	246
336.441	252
342.969	210
349.491	206
356.006	202
362.513	206
369.014	208
375.508	190
381.994	146
388.473	140
394.947	132
401.412	128
407.871	170
414.323	220
420.768	160
427.206	130
433.637	96
440.062	82
446.479	72
452.89	76
459.293	86
465.691	104
472.081	144
478.463	226
484.84	272
491.21	170
497.573	124
503.929	100
510.279	168
516.621	168
522.957	148
529.287	228
535.609	410
541.925	420
548.234	220
554.536	208
560.832	424
567.12	1432
573.403	1970
579.679	510
585.948	320
592.211	272
598.466	206
604.715	108
610.958	88
617.194	98
623.424	116
629.647	140
635.864	162
642.074	122
648.276	112
654.473	86
660.664	70
666.847	64
673.025	54
679.195	62
685.36	62
691.517	56
697.669	54
703.814	68
709.953	78
716.085	88
722.21	74
728.33	76
734.443	88
740.549	88
746.65	134
752.743	124
758.831	96
764.912	72
770.986	76
777.055	78
783.117	80
789.173	64
795.222	56
801.265	66
807.302	76
813.333	72
819.357	88
825.376	140
831.387	472
837.392	236
843.392	104
849.386	92
855.372	78
861.353	76
867.328	64
873.296	66
879.258	60
885.214	64
891.164	64
897.108	60
903.046	56
908.977	56
914.903	60
920.822	60
926.735	64
932.643	66
938.543	66
944.439	90
950.328	140
956.21	304
962.088	352
967.958	236
973.824	136
979.682	80
985.534	80
991.382	78
997.222	70
1003.06	66
1008.89	60
1014.71	64
1020.53	78
1026.34	82
1032.14	98
1037.94	94
1043.73	76
1049.52	76
1055.3	70
1061.08	68
1066.85	64
1072.61	62
1078.37	64
1084.12	66
1089.87	72
1095.61	66
1101.34	78
1107.07	138
1112.8	344
1118.51	158
1124.22	108
1129.93	86
1135.63	84
1141.32	82
1147.01	78
1152.69	76
1158.37	78
1164.04	96
1169.71	86
1175.37	98
1181.02	146
1186.67	242
1192.31	168
1197.95	160
1203.58	168
1209.2	136
1214.82	90
1220.44	92
1226.05	114
1231.65	132
1237.25	98
1242.84	86
1248.42	92
1254	84
1259.58	88
1265.15	96
1270.71	104
1276.27	102
1281.82	128
1287.37	162
1292.91	188
1298.45	356
1303.98	746
1309.5	504
1315.02	274
1320.53	192
1326.04	182
1331.54	176
1337.04	152
1342.53	150
1348.02	160
1353.5	164
1358.98	144
1364.45	152
1369.91	184
1375.37	338
1380.82	424
1386.27	270
1391.71	164
1397.15	142
1402.58	140
1408.01	122
1413.43	132
1418.85	160
1424.26	182
1429.66	184
1435.06	204
1440.46	220
1445.85	192
1451.23	164
1456.61	156
1461.98	154
1467.35	150
1472.71	146
1478.07	138
1483.42	132
1488.77	124
1494.11	122
1499.45	114
1504.78	112
1510.11	110
1515.43	116
1520.74	112
1526.05	118
1531.36	112
1536.66	100
1541.95	102
1547.24	110
1552.52	110
1557.8	102
1563.08	114
1568.35	110
1573.61	122
1578.87	164
1584.12	186
1589.37	234
1594.61	342
1599.85	456
1605.08	462
1610.31	336
1615.53	228
1620.75	158
1625.96	126
1631.17	106
1636.37	90
1641.57	90
1646.76	88
1651.95	90
1657.13	82
1662.31	82
1667.48	90
1672.65	72
1677.81	80
1682.97	72
1688.12	80
1693.27	74
1698.41	78
1702.26	82