File: Mixture_Classification/Jesse_Dataset_v2/Pure Raman/Polypropylene oxide/785nm/ps-ppo-6jan25-0,0000-map2_Y01_X08.txt
204.377	378
211.048	336
217.712	342
224.369	466
231.019	886
237.661	906
244.297	610
250.924	404
257.546	288
264.16	212
270.766	174
277.365	178
283.958	222
290.543	360
297.121	432
303.693	336
310.256	244
316.813	230
323.362	226
329.905	258
336.441	256
342.969	226
349.491	224
356.006	208
362.513	202
369.014	190
375.508	186
381.994	150
388.473	138
394.947	124
401.412	134
407.871	148
414.323	212
420.768	158
427.206	124
433.637	106
440.062	88
446.479	80
452.89	82
459.293	86
465.691	102
472.081	154
478.463	234
484.84	292
491.21	182
497.573	114
503.929	106
510.279	168
516.621	170
522.957	154
529.287	228
535.609	418
541.925	406
548.234	226
554.536	204
560.832	388
567.12	1448
573.403	1992
579.679	490
585.948	328
592.211	264
598.466	216
604.715	116
610.958	96
617.194	94
623.424	118
629.647	122
635.864	152
642.074	136
648.276	106
654.473	76
660.664	62
666.847	72
673.025	70
679.195	60
685.36	56
691.517	62
697.669	58
703.814	66
709.953	78
716.085	98
722.21	68
728.33	76
734.443	86
740.549	96
746.65	142
752.743	124
758.831	86
764.912	70
770.986	64
777.055	78
783.117	80
789.173	66
795.222	70
801.265	64
807.302	76
813.333	76
819.357	98
825.376	138
831.387	466
837.392	262
843.392	110
849.386	96
855.372	88
861.353	86
867.328	76
873.296	68
879.258	66
885.214	62
891.164	58
897.108	56
903.046	56
908.977	60
914.903	58
920.822	60
926.735	58
932.643	64
938.543	72
944.439	86
950.328	138
956.21	296
962.088	372
967.958	226
973.824	132
979.682	86
985.534	74
991.382	74
997.222	62
1003.06	64
1008.89	60
1014.71	66
1020.53	76
1026.34	92
1032.14	112
1037.94	100
1043.73	86
1049.52	68
1055.3	62
1061.08	62
1066.85	68
1072.61	60
1078.37	66
1084.12	60
1089.87	72
1095.61	72
1101.34	82
1107.07	126
1112.8	354
1118.51	158
1124.22	104
1129.93	88
1135.63	90
1141.32	90
1147.01	76
1152.69	66
1158.37	88
1164.04	98
1169.71	88
1175.37	92
1181.02	152
1186.67	246
1192.31	166
1197.95	152
1203.58	180
1209.2	122
1214.82	92
1220.44	90
1226.05	116
1231.65	136
1237.25	92
1242.84	82
1248.42	92
1254	82
1259.58	94
1265.15	94
1270.71	98
1276.27	112
1281.82	114
1287.37	156
1292.91	198
1298.45	328
1303.98	736
1309.5	530
1315.02	252
1320.53	204
1326.04	178
1331.54	174
1337.04	148
1342.53	150
1348.02	170
1353.5	168
1358.98	154
1364.45	160
1369.91	176
1375.37	344
1380.82	434
1386.27	258
1391.71	166
1397.15	140
1402.58	132
1408.01	152
1413.43	146
1418.85	160
1424.26	174
1429.66	178
1435.06	180
1440.46	222
1445.85	192
1451.23	182
1456.61	150
1461.98	152
1467.35	152
1472.71	150
1478.07	142
1483.42	136
1488.77	130
1494.11	116
1499.45	120
1504.78	116
1510.11	118
1515.43	106
1520.74	110
1526.05	114
1531.36	110
1536.66	118
1541.95	98
1547.24	112
1552.52	108
1557.8	112
1563.08	106
1568.35	122
1573.61	120
1578.87	150
1584.12	180
1589.37	238
1594.61	340
1599.85	470
1605.08	428
1610.31	368
1615.53	248
1620.75	174
1625.96	122
1631.17	104
1636.37	96
1641.57	86
1646.76	90
1651.95	90
1657.13	88
1662.31	86
1667.48	82
1672.65	80
1677.81	76
1682.97	76
1688.12	84
1693.27	82
1698.41	82
1702.26	84