File: Mixture_Classification/Jesse_Dataset_v2/Pure Raman/Polypropylene oxide/785nm/ps-ppo-6jan25-0,0000-map2_Y07_X02.txt
204.377	390
211.048	332
217.712	332
224.369	476
231.019	912
237.661	908
244.297	612
250.924	392
257.546	282
264.16	194
270.766	176
277.365	186
283.958	250
290.543	364
297.121	436
303.693	320
310.256	278
316.813	212
323.362	238
329.905	248
336.441	272
342.969	214
349.491	210
356.006	212
362.513	180
369.014	198
375.508	188
381.994	146
388.473	136
394.947	128
401.412	130
407.871	158
414.323	214
420.768	158
427.206	116
433.637	102
440.062	88
446.479	82
452.89	92
459.293	92
465.691	104
472.081	154
478.463	224
484.84	304
491.21	170
497.573	104
503.929	88
510.279	158
516.621	166
522.957	164
529.287	228
535.609	388
541.925	426
548.234	226
554.536	216
560.832	406
567.12	1414
573.403	1966
579.679	492
585.948	340
592.211	258
598.466	206
604.715	124
610.958	100
617.194	88
623.424	106
629.647	132
635.864	156
642.074	132
648.276	114
654.473	92
660.664	70
666.847	66
673.025	64
679.195	64
685.36	60
691.517	66
697.669	62
703.814	66
709.953	82
716.085	108
722.21	82
728.33	90
734.443	84
740.549	94
746.65	140
752.743	124
758.831	96
764.912	72
770.986	76
777.055	82
783.117	78
789.173	74
795.222	66
801.265	68
807.302	76
813.333	74
819.357	92
825.376	136
831.387	498
837.392	246
843.392	112
849.386	94
855.372	92
861.353	86
867.328	66
873.296	66
879.258	68
885.214	58
891.164	64
897.108	54
903.046	52
908.977	64
914.903	58
920.822	64
926.735	64
932.643	62
938.543	72
944.439	90
950.328	142
956.21	294
962.088	368
967.958	218
973.824	130
979.682	80
985.534	72
991.382	78
997.222	60
1003.06	56
1008.89	64
1014.71	68
1020.53	72
1026.34	80
1032.14	96
1037.94	98
1043.73	84
1049.52	76
1055.3	74
1061.08	64
1066.85	64
1072.61	58
1078.37	70
1084.12	68
1089.87	66
1095.61	66
1101.34	74
1107.07	142
1112.8	358
1118.51	158
1124.22	104
1129.93	92
1135.63	78
1141.32	94
1147.01	84
1152.69	70
1158.37	92
1164.04	92
1169.71	84
1175.37	106
1181.02	154
1186.67	242
1192.31	150
1197.95	138
1203.58	174
1209.2	132
1214.82	94
1220.44	90
1226.05	120
1231.65	122
1237.25	96
1242.84	74
1248.42	86
1254	80
1259.58	88
1265.15	92
1270.71	96
1276.27	108
1281.82	128
1287.37	148
1292.91	182
1298.45	352
1303.98	794
1309.5	514
1315.02	264
1320.53	194
1326.04	190
1331.54	178
1337.04	154
1342.53	146
1348.02	164
1353.5	158
1358.98	158
1364.45	146
1369.91	158
1375.37	350
1380.82	424
1386.27	262
1391.71	152
1397.15	130
1402.58	144
1408.01	140
1413.43	144
1418.85	158
1424.26	176
1429.66	192
1435.06	200
1440.46	212
1445.85	190
1451.23	178
1456.61	158
1461.98	162
1467.35	150
1472.71	136
1478.07	142
1483.42	136
1488.77	120
1494.11	124
1499.45	120
1504.78	114
1510.11	104
1515.43	116
1520.74	116
1526.05	116
1531.36	114
1536.66	102
1541.95	112
1547.24	100
1552.52	110
1557.8	118
1563.08	106
1568.35	112
1573.61	124
1578.87	152
1584.12	176
1589.37	244
1594.61	310
1599.85	474
1605.08	444
1610.31	342
1615.53	238
1620.75	168
1625.96	128
1631.17	102
1636.37	98
1641.57	94
1646.76	86
1651.95	88
1657.13	82
1662.31	78
1667.48	74
1672.65	86
1677.81	70
1682.97	82
1688.12	86
1693.27	82
1698.41	78
1702.26	76