File: Mixture_Classification/Jesse_Dataset_v2/Pure Raman/Polypropylene oxide/785nm/ps-ppo-6jan25-0,0000-map2_Y09_X01.txt
204.377	354
211.048	320
217.712	308
224.369	420
231.019	852
237.661	840
244.297	588
250.924	390
257.546	236
264.16	198
270.766	174
277.365	184
283.958	218
290.543	366
297.121	404
303.693	290
310.256	256
316.813	216
323.362	216
329.905	232
336.441	250
342.969	206
349.491	200
356.006	220
362.513	180
369.014	182
375.508	182
381.994	144
388.473	126
394.947	120
401.412	118
407.871	140
414.323	204
420.768	156
427.206	104
433.637	100
440.062	76
446.479	74
452.89	78
459.293	78
465.691	96
472.081	140
478.463	204
484.84	278
491.21	158
497.573	108
503.929	96
510.279	160
516.621	158
522.957	156
529.287	228
535.609	370
541.925	398
548.234	214
554.536	194
560.832	392
567.12	1372
573.403	1828
579.679	474
585.948	312
592.211	260
598.466	196
604.715	110
610.958	86
617.194	88
623.424	106
629.647	130
635.864	140
642.074	116
648.276	104
654.473	86
660.664	68
666.847	66
673.025	60
679.195	56
685.36	58
691.517	58
697.669	54
703.814	66
709.953	80
716.085	90
722.21	80
728.33	70
734.443	82
740.549	84
746.65	134
752.743	118
758.831	88
764.912	70
770.986	72
777.055	80
783.117	68
789.173	66
795.222	56
801.265	72
807.302	70
813.333	76
819.357	86
825.376	126
831.387	450
837.392	234
843.392	102
849.386	100
855.372	76
861.353	80
867.328	70
873.296	62
879.258	58
885.214	56
891.164	56
897.108	46
903.046	54
908.977	50
914.903	56
920.822	50
926.735	50
932.643	70
938.543	70
944.439	84
950.328	138
956.21	276
962.088	340
967.958	208
973.824	128
979.682	88
985.534	62
991.382	72
997.222	60
1003.06	64
1008.89	58
1014.71	66
1020.53	64
1026.34	82
1032.14	100
1037.94	82
1043.73	78
1049.52	68
1055.3	66
1061.08	64
1066.85	64
1072.61	64
1078.37	54
1084.12	62
1089.87	68
1095.61	66
1101.34	80
1107.07	134
1112.8	332
1118.51	150
1124.22	102
1129.93	90
1135.63	84
1141.32	88
1147.01	70
1152.69	70
1158.37	86
1164.04	88
1169.71	76
1175.37	90
1181.02	140
1186.67	228
1192.31	158
1197.95	160
1203.58	170
1209.2	132
1214.82	92
1220.44	90
1226.05	102
1231.65	114
1237.25	98
1242.84	90
1248.42	84
1254	80
1259.58	86
1265.15	94
1270.71	86
1276.27	108
1281.82	124
1287.37	148
1292.91	184
1298.45	318
1303.98	710
1309.5	482
1315.02	258
1320.53	178
1326.04	172
1331.54	172
1337.04	138
1342.53	132
1348.02	160
1353.5	148
1358.98	134
1364.45	144
1369.91	176
1375.37	324
1380.82	402
1386.27	256
1391.71	158
1397.15	130
1402.58	136
1408.01	128
1413.43	132
1418.85	150
1424.26	174
1429.66	166
1435.06	188
1440.46	194
1445.85	186
1451.23	154
1456.61	158
1461.98	146
1467.35	142
1472.71	136
1478.07	128
1483.42	126
1488.77	130
1494.11	112
1499.45	100
1504.78	116
1510.11	102
1515.43	102
1520.74	98
1526.05	106
1531.36	104
1536.66	90
1541.95	112
1547.24	104
1552.52	106
1557.8	104
1563.08	104
1568.35	108
1573.61	110
1578.87	144
1584.12	164
1589.37	220
1594.61	322
1599.85	422
1605.08	422
1610.31	330
1615.53	230
1620.75	168
1625.96	114
1631.17	102
1636.37	96
1641.57	90
1646.76	76
1651.95	82
1657.13	78
1662.31	78
1667.48	80
1672.65	74
1677.81	76
1682.97	78
1688.12	78
1693.27	74
1698.41	70
1702.26	76