File: Mixture_Classification/Jesse_Dataset_v2/Pure Raman/Polypropylene oxide/785nm/ps-ppo-6jan25-0,0000-map2_Y02_X08.txt
204.377	378
211.048	348
217.712	354
224.369	488
231.019	924
237.661	936
244.297	654
250.924	422
257.546	282
264.16	206
270.766	182
277.365	192
283.958	246
290.543	392
297.121	464
303.693	340
310.256	274
316.813	240
323.362	238
329.905	270
336.441	258
342.969	230
349.491	218
356.006	222
362.513	196
369.014	194
375.508	208
381.994	154
388.473	144
394.947	134
401.412	128
407.871	158
414.323	232
420.768	172
427.206	114
433.637	104
440.062	94
446.479	72
452.89	88
459.293	80
465.691	108
472.081	150
478.463	238
484.84	316
491.21	186
497.573	118
503.929	98
510.279	164
516.621	170
522.957	152
529.287	218
535.609	448
541.925	420
548.234	234
554.536	214
560.832	410
567.12	1488
573.403	2034
579.679	496
585.948	342
592.211	274
598.466	212
604.715	116
610.958	102
617.194	100
623.424	114
629.647	132
635.864	158
642.074	134
648.276	100
654.473	92
660.664	80
666.847	60
673.025	60
679.195	58
685.36	56
691.517	64
697.669	58
703.814	68
709.953	82
716.085	106
722.21	78
728.33	76
734.443	82
740.549	90
746.65	148
752.743	126
758.831	104
764.912	68
770.986	66
777.055	82
783.117	78
789.173	72
795.222	66
801.265	64
807.302	76
813.333	76
819.357	88
825.376	134
831.387	500
837.392	270
843.392	114
849.386	94
855.372	94
861.353	80
867.328	74
873.296	62
879.258	66
885.214	60
891.164	58
897.108	58
903.046	60
908.977	64
914.903	64
920.822	54
926.735	58
932.643	64
938.543	78
944.439	94
950.328	150
956.21	320
962.088	368
967.958	220
973.824	142
979.682	80
985.534	74
991.382	74
997.222	66
1003.06	60
1008.89	60
1014.71	74
1020.53	78
1026.34	88
1032.14	102
1037.94	94
1043.73	82
1049.52	70
1055.3	66
1061.08	70
1066.85	64
1072.61	68
1078.37	72
1084.12	70
1089.87	70
1095.61	74
1101.34	82
1107.07	140
1112.8	382
1118.51	176
1124.22	112
1129.93	92
1135.63	86
1141.32	84
1147.01	80
1152.69	78
1158.37	88
1164.04	90
1169.71	98
1175.37	104
1181.02	154
1186.67	236
1192.31	170
1197.95	172
1203.58	178
1209.2	142
1214.82	88
1220.44	86
1226.05	112
1231.65	130
1237.25	100
1242.84	90
1248.42	88
1254	86
1259.58	92
1265.15	98
1270.71	100
1276.27	100
1281.82	130
1287.37	156
1292.91	204
1298.45	358
1303.98	802
1309.5	542
1315.02	276
1320.53	194
1326.04	172
1331.54	174
1337.04	142
1342.53	148
1348.02	172
1353.5	168
1358.98	150
1364.45	154
1369.91	184
1375.37	356
1380.82	450
1386.27	302
1391.71	176
1397.15	140
1402.58	136
1408.01	140
1413.43	152
1418.85	164
1424.26	184
1429.66	196
1435.06	218
1440.46	220
1445.85	202
1451.23	180
1456.61	166
1461.98	154
1467.35	160
1472.71	150
1478.07	158
1483.42	134
1488.77	128
1494.11	116
1499.45	120
1504.78	114
1510.11	106
1515.43	114
1520.74	116
1526.05	122
1531.36	112
1536.66	108
1541.95	114
1547.24	110
1552.52	110
1557.8	112
1563.08	120
1568.35	114
1573.61	118
1578.87	140
1584.12	182
1589.37	238
1594.61	346
1599.85	462
1605.08	482
1610.31	376
1615.53	256
1620.75	174
1625.96	126
1631.17	114
1636.37	94
1641.57	88
1646.76	94
1651.95	90
1657.13	86
1662.31	86
1667.48	92
1672.65	82
1677.81	76
1682.97	80
1688.12	80
1693.27	80
1698.41	80
1702.26	82