File: Mixture_Classification/Jesse_Dataset_v2/Pure Raman/Polypropylene oxide/785nm/ps-ppo-6jan25-0,0000-map2_Y02_X05.txt
204.377	378
211.048	326
217.712	336
224.369	472
231.019	902
237.661	894
244.297	634
250.924	394
257.546	260
264.16	200
270.766	182
277.365	182
283.958	218
290.543	364
297.121	442
303.693	340
310.256	262
316.813	232
323.362	216
329.905	258
336.441	254
342.969	220
349.491	214
356.006	208
362.513	188
369.014	186
375.508	198
381.994	148
388.473	130
394.947	116
401.412	114
407.871	160
414.323	216
420.768	160
427.206	130
433.637	104
440.062	88
446.479	78
452.89	80
459.293	72
465.691	108
472.081	152
478.463	212
484.84	282
491.21	174
497.573	120
503.929	102
510.279	162
516.621	162
522.957	160
529.287	230
535.609	402
541.925	418
548.234	210
554.536	208
560.832	402
567.12	1392
573.403	1972
579.679	494
585.948	332
592.211	272
598.466	214
604.715	122
610.958	96
617.194	88
623.424	110
629.647	134
635.864	166
642.074	132
648.276	106
654.473	82
660.664	68
666.847	66
673.025	54
679.195	62
685.36	62
691.517	56
697.669	58
703.814	66
709.953	82
716.085	98
722.21	76
728.33	74
734.443	76
740.549	82
746.65	142
752.743	124
758.831	92
764.912	70
770.986	72
777.055	74
783.117	80
789.173	70
795.222	64
801.265	66
807.302	74
813.333	76
819.357	76
825.376	128
831.387	486
837.392	256
843.392	104
849.386	86
855.372	86
861.353	80
867.328	76
873.296	62
879.258	64
885.214	56
891.164	54
897.108	52
903.046	58
908.977	56
914.903	60
920.822	58
926.735	60
932.643	60
938.543	74
944.439	94
950.328	142
956.21	292
962.088	356
967.958	216
973.824	130
979.682	82
985.534	66
991.382	80
997.222	60
1003.06	62
1008.89	66
1014.71	62
1020.53	74
1026.34	90
1032.14	96
1037.94	90
1043.73	86
1049.52	68
1055.3	62
1061.08	58
1066.85	64
1072.61	66
1078.37	60
1084.12	62
1089.87	64
1095.61	72
1101.34	76
1107.07	142
1112.8	342
1118.51	158
1124.22	98
1129.93	88
1135.63	86
1141.32	86
1147.01	82
1152.69	76
1158.37	80
1164.04	92
1169.71	76
1175.37	98
1181.02	132
1186.67	228
1192.31	158
1197.95	148
1203.58	182
1209.2	128
1214.82	96
1220.44	80
1226.05	112
1231.65	134
1237.25	94
1242.84	86
1248.42	84
1254	90
1259.58	84
1265.15	96
1270.71	96
1276.27	106
1281.82	142
1287.37	150
1292.91	196
1298.45	330
1303.98	764
1309.5	508
1315.02	268
1320.53	204
1326.04	188
1331.54	168
1337.04	158
1342.53	152
1348.02	154
1353.5	166
1358.98	142
1364.45	152
1369.91	176
1375.37	318
1380.82	430
1386.27	280
1391.71	156
1397.15	144
1402.58	138
1408.01	144
1413.43	134
1418.85	168
1424.26	180
1429.66	178
1435.06	202
1440.46	204
1445.85	184
1451.23	172
1456.61	156
1461.98	162
1467.35	158
1472.71	148
1478.07	146
1483.42	126
1488.77	140
1494.11	124
1499.45	118
1504.78	116
1510.11	102
1515.43	116
1520.74	112
1526.05	110
1531.36	112
1536.66	104
1541.95	102
1547.24	100
1552.52	110
1557.8	106
1563.08	112
1568.35	114
1573.61	124
1578.87	140
1584.12	186
1589.37	222
1594.61	358
1599.85	452
1605.08	430
1610.31	348
1615.53	234
1620.75	166
1625.96	126
1631.17	102
1636.37	102
1641.57	94
1646.76	74
1651.95	78
1657.13	86
1662.31	84
1667.48	84
1672.65	80
1677.81	80
1682.97	70
1688.12	72
1693.27	82
1698.41	78
1702.26	86