File: Mixture_Classification/Jesse_Dataset_v2/Pure Raman/Polypropylene oxide/785nm/ps-ppo-6jan25-0,0000-map2_Y10_X10.txt
204.377	376
211.048	338
217.712	336
224.369	480
231.019	922
237.661	910
244.297	626
250.924	416
257.546	262
264.16	198
270.766	182
277.365	192
283.958	234
290.543	358
297.121	428
303.693	332
310.256	246
316.813	218
323.362	238
329.905	244
336.441	258
342.969	218
349.491	206
356.006	212
362.513	186
369.014	198
375.508	182
381.994	144
388.473	136
394.947	130
401.412	126
407.871	152
414.323	216
420.768	158
427.206	128
433.637	98
440.062	84
446.479	82
452.89	78
459.293	84
465.691	102
472.081	146
478.463	236
484.84	292
491.21	174
497.573	100
503.929	100
510.279	166
516.621	160
522.957	158
529.287	212
535.609	412
541.925	424
548.234	208
554.536	212
560.832	404
567.12	1450
573.403	1966
579.679	496
585.948	332
592.211	272
598.466	208
604.715	108
610.958	94
617.194	88
623.424	116
629.647	132
635.864	148
642.074	116
648.276	102
654.473	98
660.664	62
666.847	70
673.025	60
679.195	62
685.36	64
691.517	64
697.669	62
703.814	66
709.953	76
716.085	106
722.21	74
728.33	66
734.443	78
740.549	90
746.65	140
752.743	124
758.831	100
764.912	68
770.986	64
777.055	84
783.117	80
789.173	72
795.222	70
801.265	70
807.302	82
813.333	76
819.357	82
825.376	128
831.387	502
837.392	234
843.392	104
849.386	104
855.372	94
861.353	82
867.328	74
873.296	60
879.258	66
885.214	56
891.164	58
897.108	60
903.046	60
908.977	58
914.903	62
920.822	60
926.735	58
932.643	70
938.543	82
944.439	100
950.328	154
956.21	316
962.088	362
967.958	230
973.824	120
979.682	86
985.534	76
991.382	78
997.222	62
1003.06	62
1008.89	66
1014.71	66
1020.53	66
1026.34	86
1032.14	94
1037.94	92
1043.73	84
1049.52	72
1055.3	72
1061.08	66
1066.85	66
1072.61	66
1078.37	60
1084.12	60
1089.87	70
1095.61	66
1101.34	78
1107.07	156
1112.8	344
1118.51	136
1124.22	100
1129.93	88
1135.63	80
1141.32	90
1147.01	78
1152.69	74
1158.37	88
1164.04	96
1169.71	82
1175.37	100
1181.02	144
1186.67	244
1192.31	156
1197.95	164
1203.58	168
1209.2	124
1214.82	98
1220.44	90
1226.05	126
1231.65	130
1237.25	96
1242.84	82
1248.42	88
1254	86
1259.58	96
1265.15	98
1270.71	102
1276.27	102
1281.82	128
1287.37	152
1292.91	200
1298.45	346
1303.98	770
1309.5	498
1315.02	266
1320.53	190
1326.04	180
1331.54	170
1337.04	132
1342.53	156
1348.02	150
1353.5	160
1358.98	154
1364.45	146
1369.91	168
1375.37	332
1380.82	434
1386.27	254
1391.71	154
1397.15	136
1402.58	136
1408.01	136
1413.43	138
1418.85	150
1424.26	178
1429.66	204
1435.06	194
1440.46	214
1445.85	180
1451.23	170
1456.61	164
1461.98	152
1467.35	148
1472.71	144
1478.07	144
1483.42	132
1488.77	130
1494.11	112
1499.45	102
1504.78	114
1510.11	110
1515.43	116
1520.74	112
1526.05	112
1531.36	108
1536.66	112
1541.95	104
1547.24	108
1552.52	120
1557.8	104
1563.08	114
1568.35	126
1573.61	136
1578.87	150
1584.12	170
1589.37	234
1594.61	344
1599.85	456
1605.08	446
1610.31	350
1615.53	238
1620.75	160
1625.96	126
1631.17	110
1636.37	94
1641.57	88
1646.76	80
1651.95	82
1657.13	78
1662.31	76
1667.48	78
1672.65	84
1677.81	74
1682.97	84
1688.12	74
1693.27	80
1698.41	74
1702.26	82