File: Mixture_Classification/Jesse_Dataset_v2/Pure Raman/Polypropylene oxide/785nm/ps-ppo-6jan25-0,0000-map2_Y09_X04.txt
204.377	312
211.048	302
217.712	282
224.369	422
231.019	770
237.661	796
244.297	560
250.924	362
257.546	252
264.16	172
270.766	160
277.365	148
283.958	198
290.543	328
297.121	378
303.693	282
310.256	226
316.813	212
323.362	200
329.905	230
336.441	224
342.969	178
349.491	198
356.006	176
362.513	158
369.014	160
375.508	174
381.994	140
388.473	114
394.947	126
401.412	104
407.871	132
414.323	180
420.768	144
427.206	110
433.637	94
440.062	72
446.479	70
452.89	72
459.293	76
465.691	82
472.081	128
478.463	192
484.84	246
491.21	156
497.573	102
503.929	88
510.279	140
516.621	154
522.957	140
529.287	204
535.609	348
541.925	342
548.234	188
554.536	178
560.832	358
567.12	1246
573.403	1676
579.679	426
585.948	292
592.211	220
598.466	178
604.715	104
610.958	78
617.194	84
623.424	96
629.647	120
635.864	132
642.074	118
648.276	96
654.473	76
660.664	74
666.847	68
673.025	58
679.195	50
685.36	66
691.517	56
697.669	56
703.814	68
709.953	76
716.085	88
722.21	68
728.33	74
734.443	76
740.549	82
746.65	124
752.743	104
758.831	72
764.912	60
770.986	68
777.055	74
783.117	68
789.173	62
795.222	56
801.265	64
807.302	72
813.333	72
819.357	78
825.376	104
831.387	410
837.392	206
843.392	84
849.386	94
855.372	80
861.353	74
867.328	64
873.296	50
879.258	62
885.214	54
891.164	58
897.108	54
903.046	54
908.977	50
914.903	54
920.822	54
926.735	54
932.643	60
938.543	62
944.439	76
950.328	124
956.21	266
962.088	310
967.958	190
973.824	118
979.682	74
985.534	62
991.382	60
997.222	56
1003.06	56
1008.89	58
1014.71	62
1020.53	76
1026.34	80
1032.14	80
1037.94	84
1043.73	80
1049.52	62
1055.3	60
1061.08	56
1066.85	58
1072.61	62
1078.37	58
1084.12	48
1089.87	60
1095.61	66
1101.34	72
1107.07	118
1112.8	302
1118.51	132
1124.22	92
1129.93	82
1135.63	78
1141.32	88
1147.01	72
1152.69	80
1158.37	78
1164.04	86
1169.71	76
1175.37	86
1181.02	128
1186.67	204
1192.31	150
1197.95	144
1203.58	154
1209.2	122
1214.82	84
1220.44	88
1226.05	92
1231.65	114
1237.25	72
1242.84	68
1248.42	80
1254	86
1259.58	80
1265.15	86
1270.71	82
1276.27	98
1281.82	112
1287.37	140
1292.91	160
1298.45	300
1303.98	640
1309.5	450
1315.02	232
1320.53	178
1326.04	158
1331.54	142
1337.04	120
1342.53	128
1348.02	138
1353.5	150
1358.98	128
1364.45	138
1369.91	160
1375.37	302
1380.82	364
1386.27	246
1391.71	142
1397.15	124
1402.58	116
1408.01	122
1413.43	130
1418.85	138
1424.26	168
1429.66	166
1435.06	178
1440.46	188
1445.85	172
1451.23	134
1456.61	144
1461.98	136
1467.35	136
1472.71	130
1478.07	132
1483.42	116
1488.77	112
1494.11	110
1499.45	106
1504.78	110
1510.11	102
1515.43	94
1520.74	104
1526.05	96
1531.36	94
1536.66	94
1541.95	92
1547.24	98
1552.52	100
1557.8	104
1563.08	108
1568.35	100
1573.61	118
1578.87	128
1584.12	154
1589.37	222
1594.61	300
1599.85	392
1605.08	376
1610.31	292
1615.53	212
1620.75	150
1625.96	110
1631.17	86
1636.37	88
1641.57	90
1646.76	76
1651.95	80
1657.13	76
1662.31	70
1667.48	80
1672.65	70
1677.81	72
1682.97	74
1688.12	74
1693.27	76
1698.41	82
1702.26	70