File: Mixture_Classification/Jesse_Dataset_v2/Pure Raman/Polypropylene oxide/785nm/ps-ppo-6jan25-0,0000-map2_Y10_X00.txt
204.377	366
211.048	350
217.712	334
224.369	466
231.019	842
237.661	886
244.297	622
250.924	388
257.546	270
264.16	200
270.766	166
277.365	182
283.958	234
290.543	356
297.121	408
303.693	314
310.256	256
316.813	212
323.362	232
329.905	238
336.441	238
342.969	202
349.491	202
356.006	208
362.513	186
369.014	184
375.508	180
381.994	150
388.473	130
394.947	126
401.412	130
407.871	146
414.323	210
420.768	158
427.206	118
433.637	102
440.062	88
446.479	82
452.89	78
459.293	80
465.691	112
472.081	138
478.463	212
484.84	264
491.21	186
497.573	118
503.929	96
510.279	162
516.621	162
522.957	152
529.287	236
535.609	390
541.925	392
548.234	216
554.536	206
560.832	388
567.12	1400
573.403	1912
579.679	460
585.948	324
592.211	258
598.466	186
604.715	104
610.958	90
617.194	88
623.424	108
629.647	134
635.864	156
642.074	122
648.276	90
654.473	86
660.664	70
666.847	64
673.025	60
679.195	62
685.36	62
691.517	60
697.669	60
703.814	68
709.953	70
716.085	92
722.21	78
728.33	78
734.443	80
740.549	78
746.65	136
752.743	112
758.831	90
764.912	68
770.986	68
777.055	74
783.117	82
789.173	64
795.222	74
801.265	70
807.302	74
813.333	66
819.357	86
825.376	132
831.387	466
837.392	230
843.392	100
849.386	98
855.372	88
861.353	74
867.328	68
873.296	64
879.258	62
885.214	60
891.164	52
897.108	58
903.046	56
908.977	60
914.903	56
920.822	60
926.735	52
932.643	60
938.543	72
944.439	90
950.328	148
956.21	280
962.088	364
967.958	218
973.824	132
979.682	84
985.534	72
991.382	76
997.222	60
1003.06	60
1008.89	64
1014.71	62
1020.53	72
1026.34	86
1032.14	106
1037.94	100
1043.73	86
1049.52	68
1055.3	68
1061.08	64
1066.85	60
1072.61	60
1078.37	58
1084.12	58
1089.87	72
1095.61	72
1101.34	80
1107.07	134
1112.8	328
1118.51	162
1124.22	92
1129.93	86
1135.63	86
1141.32	88
1147.01	76
1152.69	72
1158.37	90
1164.04	104
1169.71	86
1175.37	94
1181.02	144
1186.67	230
1192.31	150
1197.95	154
1203.58	178
1209.2	132
1214.82	84
1220.44	92
1226.05	106
1231.65	134
1237.25	102
1242.84	88
1248.42	86
1254	84
1259.58	94
1265.15	92
1270.71	80
1276.27	104
1281.82	124
1287.37	154
1292.91	188
1298.45	324
1303.98	722
1309.5	474
1315.02	254
1320.53	204
1326.04	176
1331.54	170
1337.04	132
1342.53	154
1348.02	170
1353.5	150
1358.98	140
1364.45	156
1369.91	180
1375.37	320
1380.82	424
1386.27	274
1391.71	154
1397.15	140
1402.58	128
1408.01	120
1413.43	140
1418.85	146
1424.26	174
1429.66	186
1435.06	198
1440.46	212
1445.85	196
1451.23	166
1456.61	158
1461.98	146
1467.35	146
1472.71	148
1478.07	146
1483.42	142
1488.77	124
1494.11	122
1499.45	112
1504.78	106
1510.11	92
1515.43	104
1520.74	108
1526.05	112
1531.36	100
1536.66	104
1541.95	108
1547.24	106
1552.52	102
1557.8	104
1563.08	114
1568.35	112
1573.61	118
1578.87	136
1584.12	172
1589.37	230
1594.61	314
1599.85	436
1605.08	430
1610.31	346
1615.53	256
1620.75	162
1625.96	124
1631.17	102
1636.37	96
1641.57	92
1646.76	76
1651.95	86
1657.13	76
1662.31	78
1667.48	74
1672.65	82
1677.81	76
1682.97	70
1688.12	86
1693.27	86
1698.41	84
1702.26	80