File: Mixture_Classification/Jesse_Dataset_v2/Pure Raman/Polypropylene oxide/785nm/ps-ppo-6jan25-0,0000-map2_Y00_X04.txt
204.377	382
211.048	344
217.712	342
224.369	478
231.019	898
237.661	888
244.297	638
250.924	416
257.546	266
264.16	208
270.766	186
277.365	180
283.958	224
290.543	378
297.121	416
303.693	336
310.256	248
316.813	234
323.362	226
329.905	256
336.441	240
342.969	224
349.491	220
356.006	196
362.513	190
369.014	186
375.508	202
381.994	146
388.473	150
394.947	132
401.412	130
407.871	162
414.323	218
420.768	180
427.206	114
433.637	108
440.062	84
446.479	84
452.89	78
459.293	88
465.691	104
472.081	162
478.463	218
484.84	300
491.21	196
497.573	108
503.929	100
510.279	158
516.621	172
522.957	152
529.287	230
535.609	402
541.925	410
548.234	228
554.536	200
560.832	380
567.12	1390
573.403	1942
579.679	500
585.948	306
592.211	266
598.466	190
604.715	114
610.958	100
617.194	92
623.424	96
629.647	142
635.864	156
642.074	130
648.276	96
654.473	86
660.664	70
666.847	68
673.025	62
679.195	56
685.36	68
691.517	62
697.669	54
703.814	68
709.953	82
716.085	102
722.21	84
728.33	86
734.443	76
740.549	94
746.65	150
752.743	112
758.831	90
764.912	72
770.986	78
777.055	80
783.117	80
789.173	74
795.222	72
801.265	66
807.302	76
813.333	70
819.357	76
825.376	134
831.387	466
837.392	260
843.392	114
849.386	90
855.372	92
861.353	88
867.328	72
873.296	72
879.258	62
885.214	62
891.164	58
897.108	60
903.046	52
908.977	60
914.903	58
920.822	54
926.735	64
932.643	70
938.543	76
944.439	90
950.328	150
956.21	302
962.088	364
967.958	226
973.824	124
979.682	86
985.534	74
991.382	78
997.222	70
1003.06	66
1008.89	64
1014.71	70
1020.53	78
1026.34	82
1032.14	98
1037.94	106
1043.73	84
1049.52	70
1055.3	68
1061.08	64
1066.85	62
1072.61	62
1078.37	68
1084.12	68
1089.87	68
1095.61	74
1101.34	80
1107.07	152
1112.8	360
1118.51	160
1124.22	108
1129.93	98
1135.63	92
1141.32	86
1147.01	82
1152.69	86
1158.37	84
1164.04	100
1169.71	90
1175.37	86
1181.02	146
1186.67	242
1192.31	162
1197.95	160
1203.58	182
1209.2	130
1214.82	100
1220.44	98
1226.05	122
1231.65	138
1237.25	96
1242.84	80
1248.42	92
1254	98
1259.58	90
1265.15	100
1270.71	110
1276.27	118
1281.82	136
1287.37	158
1292.91	186
1298.45	340
1303.98	746
1309.5	524
1315.02	264
1320.53	196
1326.04	184
1331.54	186
1337.04	162
1342.53	154
1348.02	172
1353.5	164
1358.98	164
1364.45	146
1369.91	176
1375.37	336
1380.82	412
1386.27	286
1391.71	160
1397.15	138
1402.58	136
1408.01	140
1413.43	146
1418.85	170
1424.26	198
1429.66	192
1435.06	200
1440.46	218
1445.85	208
1451.23	178
1456.61	170
1461.98	160
1467.35	156
1472.71	138
1478.07	138
1483.42	132
1488.77	124
1494.11	120
1499.45	114
1504.78	118
1510.11	118
1515.43	110
1520.74	110
1526.05	114
1531.36	106
1536.66	100
1541.95	108
1547.24	108
1552.52	112
1557.8	114
1563.08	106
1568.35	108
1573.61	134
1578.87	136
1584.12	182
1589.37	240
1594.61	328
1599.85	464
1605.08	452
1610.31	360
1615.53	260
1620.75	162
1625.96	134
1631.17	108
1636.37	100
1641.57	92
1646.76	90
1651.95	88
1657.13	80
1662.31	78
1667.48	80
1672.65	84
1677.81	82
1682.97	88
1688.12	76
1693.27	86
1698.41	86
1702.26	80