File: Mixture_Classification/Jesse_Dataset_v2/Pure Raman/Polypropylene oxide/785nm/ps-ppo-6jan25-0,0000-map2_Y04_X09.txt
204.377	414
211.048	344
217.712	354
224.369	478
231.019	940
237.661	980
244.297	672
250.924	426
257.546	278
264.16	212
270.766	188
277.365	190
283.958	232
290.543	402
297.121	442
303.693	342
310.256	264
316.813	242
323.362	256
329.905	244
336.441	266
342.969	220
349.491	210
356.006	216
362.513	184
369.014	218
375.508	206
381.994	162
388.473	130
394.947	120
401.412	126
407.871	154
414.323	218
420.768	154
427.206	124
433.637	104
440.062	86
446.479	78
452.89	80
459.293	82
465.691	104
472.081	166
478.463	232
484.84	296
491.21	178
497.573	106
503.929	104
510.279	162
516.621	174
522.957	150
529.287	242
535.609	432
541.925	420
548.234	214
554.536	218
560.832	420
567.12	1458
573.403	2094
579.679	512
585.948	346
592.211	270
598.466	212
604.715	134
610.958	94
617.194	94
623.424	112
629.647	144
635.864	146
642.074	130
648.276	108
654.473	86
660.664	72
666.847	66
673.025	56
679.195	62
685.36	62
691.517	54
697.669	56
703.814	66
709.953	82
716.085	98
722.21	80
728.33	74
734.443	74
740.549	86
746.65	140
752.743	126
758.831	88
764.912	66
770.986	76
777.055	78
783.117	78
789.173	68
795.222	66
801.265	64
807.302	84
813.333	72
819.357	88
825.376	146
831.387	464
837.392	262
843.392	108
849.386	92
855.372	86
861.353	76
867.328	72
873.296	62
879.258	62
885.214	64
891.164	60
897.108	56
903.046	52
908.977	50
914.903	58
920.822	64
926.735	60
932.643	64
938.543	70
944.439	94
950.328	138
956.21	314
962.088	378
967.958	230
973.824	136
979.682	86
985.534	70
991.382	80
997.222	66
1003.06	66
1008.89	62
1014.71	66
1020.53	84
1026.34	80
1032.14	102
1037.94	102
1043.73	86
1049.52	72
1055.3	64
1061.08	64
1066.85	62
1072.61	60
1078.37	66
1084.12	64
1089.87	68
1095.61	70
1101.34	76
1107.07	152
1112.8	358
1118.51	166
1124.22	102
1129.93	90
1135.63	84
1141.32	82
1147.01	74
1152.69	74
1158.37	82
1164.04	88
1169.71	82
1175.37	94
1181.02	160
1186.67	238
1192.31	168
1197.95	168
1203.58	184
1209.2	120
1214.82	96
1220.44	92
1226.05	112
1231.65	138
1237.25	98
1242.84	82
1248.42	84
1254	82
1259.58	88
1265.15	94
1270.71	96
1276.27	108
1281.82	122
1287.37	146
1292.91	196
1298.45	370
1303.98	748
1309.5	526
1315.02	274
1320.53	188
1326.04	182
1331.54	180
1337.04	154
1342.53	150
1348.02	176
1353.5	162
1358.98	144
1364.45	162
1369.91	186
1375.37	338
1380.82	438
1386.27	270
1391.71	168
1397.15	134
1402.58	132
1408.01	128
1413.43	138
1418.85	162
1424.26	180
1429.66	186
1435.06	202
1440.46	218
1445.85	204
1451.23	166
1456.61	172
1461.98	158
1467.35	148
1472.71	154
1478.07	156
1483.42	142
1488.77	114
1494.11	114
1499.45	102
1504.78	116
1510.11	114
1515.43	108
1520.74	114
1526.05	114
1531.36	106
1536.66	106
1541.95	106
1547.24	112
1552.52	110
1557.8	120
1563.08	112
1568.35	124
1573.61	130
1578.87	140
1584.12	188
1589.37	244
1594.61	348
1599.85	462
1605.08	478
1610.31	358
1615.53	268
1620.75	164
1625.96	134
1631.17	108
1636.37	108
1641.57	90
1646.76	86
1651.95	90
1657.13	86
1662.31	88
1667.48	78
1672.65	80
1677.81	76
1682.97	72
1688.12	82
1693.27	86
1698.41	80
1702.26	74