File: Mixture_Classification/Jesse_Dataset_v2/Pure Raman/Polypropylene oxide/785nm/ps-ppo-6jan25-0,0000-map2_Y07_X06.txt
204.377	388
211.048	340
217.712	342
224.369	514
231.019	902
237.661	918
244.297	630
250.924	414
257.546	272
264.16	208
270.766	190
277.365	184
283.958	232
290.543	364
297.121	426
303.693	330
310.256	272
316.813	236
323.362	234
329.905	246
336.441	250
342.969	216
349.491	198
356.006	208
362.513	194
369.014	196
375.508	192
381.994	154
388.473	128
394.947	124
401.412	134
407.871	160
414.323	232
420.768	166
427.206	124
433.637	100
440.062	88
446.479	80
452.89	78
459.293	90
465.691	104
472.081	162
478.463	226
484.84	282
491.21	174
497.573	114
503.929	90
510.279	168
516.621	170
522.957	160
529.287	238
535.609	400
541.925	422
548.234	228
554.536	216
560.832	412
567.12	1450
573.403	1982
579.679	510
585.948	324
592.211	258
598.466	220
604.715	118
610.958	96
617.194	102
623.424	110
629.647	142
635.864	160
642.074	128
648.276	100
654.473	88
660.664	76
666.847	68
673.025	58
679.195	60
685.36	64
691.517	60
697.669	62
703.814	68
709.953	72
716.085	96
722.21	78
728.33	76
734.443	84
740.549	86
746.65	134
752.743	118
758.831	94
764.912	66
770.986	70
777.055	80
783.117	78
789.173	60
795.222	70
801.265	60
807.302	70
813.333	78
819.357	82
825.376	140
831.387	484
837.392	246
843.392	102
849.386	98
855.372	84
861.353	88
867.328	68
873.296	64
879.258	68
885.214	64
891.164	54
897.108	56
903.046	62
908.977	52
914.903	56
920.822	60
926.735	62
932.643	68
938.543	72
944.439	94
950.328	150
956.21	294
962.088	378
967.958	226
973.824	142
979.682	88
985.534	64
991.382	82
997.222	66
1003.06	62
1008.89	58
1014.71	64
1020.53	78
1026.34	90
1032.14	94
1037.94	88
1043.73	84
1049.52	74
1055.3	68
1061.08	68
1066.85	52
1072.61	62
1078.37	62
1084.12	70
1089.87	66
1095.61	70
1101.34	86
1107.07	148
1112.8	342
1118.51	176
1124.22	100
1129.93	80
1135.63	84
1141.32	92
1147.01	80
1152.69	76
1158.37	84
1164.04	84
1169.71	86
1175.37	92
1181.02	148
1186.67	250
1192.31	160
1197.95	156
1203.58	178
1209.2	122
1214.82	102
1220.44	96
1226.05	114
1231.65	146
1237.25	100
1242.84	98
1248.42	80
1254	86
1259.58	84
1265.15	92
1270.71	104
1276.27	106
1281.82	122
1287.37	154
1292.91	184
1298.45	360
1303.98	770
1309.5	520
1315.02	252
1320.53	200
1326.04	194
1331.54	176
1337.04	132
1342.53	144
1348.02	168
1353.5	160
1358.98	140
1364.45	144
1369.91	172
1375.37	316
1380.82	426
1386.27	280
1391.71	148
1397.15	132
1402.58	132
1408.01	126
1413.43	136
1418.85	148
1424.26	174
1429.66	186
1435.06	206
1440.46	218
1445.85	178
1451.23	168
1456.61	162
1461.98	164
1467.35	158
1472.71	154
1478.07	142
1483.42	136
1488.77	126
1494.11	108
1499.45	118
1504.78	106
1510.11	124
1515.43	120
1520.74	112
1526.05	104
1531.36	104
1536.66	108
1541.95	100
1547.24	112
1552.52	100
1557.8	110
1563.08	116
1568.35	112
1573.61	134
1578.87	142
1584.12	184
1589.37	244
1594.61	334
1599.85	452
1605.08	456
1610.31	342
1615.53	258
1620.75	170
1625.96	128
1631.17	110
1636.37	94
1641.57	92
1646.76	78
1651.95	82
1657.13	82
1662.31	78
1667.48	78
1672.65	76
1677.81	82
1682.97	72
1688.12	80
1693.27	86
1698.41	76
1702.26	72