File: Mixture_Classification/Jesse_Dataset_v2/Pure Raman/Polypropylene oxide/785nm/ps-ppo-6jan25-0,0000-map2_Y00_X03.txt
204.377	390
211.048	372
217.712	342
224.369	474
231.019	918
237.661	916
244.297	628
250.924	402
257.546	280
264.16	214
270.766	188
277.365	190
283.958	228
290.543	374
297.121	428
303.693	354
310.256	272
316.813	230
323.362	228
329.905	260
336.441	262
342.969	210
349.491	210
356.006	210
362.513	198
369.014	190
375.508	188
381.994	150
388.473	142
394.947	122
401.412	126
407.871	166
414.323	212
420.768	162
427.206	124
433.637	102
440.062	88
446.479	74
452.89	86
459.293	94
465.691	104
472.081	152
478.463	224
484.84	286
491.21	174
497.573	122
503.929	100
510.279	168
516.621	178
522.957	150
529.287	226
535.609	392
541.925	408
548.234	212
554.536	208
560.832	404
567.12	1402
573.403	1996
579.679	518
585.948	344
592.211	276
598.466	200
604.715	108
610.958	86
617.194	92
623.424	110
629.647	136
635.864	146
642.074	130
648.276	112
654.473	92
660.664	78
666.847	68
673.025	60
679.195	64
685.36	62
691.517	62
697.669	56
703.814	78
709.953	76
716.085	102
722.21	78
728.33	74
734.443	86
740.549	92
746.65	148
752.743	120
758.831	84
764.912	70
770.986	74
777.055	72
783.117	78
789.173	74
795.222	70
801.265	70
807.302	76
813.333	78
819.357	84
825.376	136
831.387	472
837.392	258
843.392	104
849.386	100
855.372	88
861.353	86
867.328	68
873.296	68
879.258	64
885.214	60
891.164	62
897.108	58
903.046	56
908.977	58
914.903	56
920.822	62
926.735	60
932.643	70
938.543	66
944.439	94
950.328	164
956.21	292
962.088	366
967.958	204
973.824	138
979.682	92
985.534	64
991.382	80
997.222	66
1003.06	68
1008.89	64
1014.71	76
1020.53	78
1026.34	86
1032.14	92
1037.94	94
1043.73	84
1049.52	64
1055.3	68
1061.08	64
1066.85	70
1072.61	70
1078.37	66
1084.12	58
1089.87	62
1095.61	68
1101.34	86
1107.07	140
1112.8	362
1118.51	150
1124.22	106
1129.93	82
1135.63	88
1141.32	98
1147.01	78
1152.69	70
1158.37	86
1164.04	98
1169.71	90
1175.37	102
1181.02	146
1186.67	240
1192.31	170
1197.95	178
1203.58	174
1209.2	122
1214.82	96
1220.44	92
1226.05	116
1231.65	140
1237.25	98
1242.84	94
1248.42	102
1254	88
1259.58	88
1265.15	98
1270.71	106
1276.27	110
1281.82	132
1287.37	152
1292.91	190
1298.45	342
1303.98	780
1309.5	526
1315.02	268
1320.53	196
1326.04	186
1331.54	176
1337.04	150
1342.53	158
1348.02	182
1353.5	168
1358.98	150
1364.45	160
1369.91	168
1375.37	360
1380.82	436
1386.27	284
1391.71	170
1397.15	138
1402.58	134
1408.01	150
1413.43	152
1418.85	162
1424.26	180
1429.66	188
1435.06	196
1440.46	212
1445.85	206
1451.23	166
1456.61	172
1461.98	160
1467.35	158
1472.71	140
1478.07	154
1483.42	146
1488.77	116
1494.11	116
1499.45	116
1504.78	116
1510.11	110
1515.43	112
1520.74	112
1526.05	108
1531.36	112
1536.66	110
1541.95	124
1547.24	110
1552.52	110
1557.8	116
1563.08	104
1568.35	112
1573.61	126
1578.87	134
1584.12	170
1589.37	238
1594.61	338
1599.85	454
1605.08	474
1610.31	338
1615.53	244
1620.75	168
1625.96	120
1631.17	108
1636.37	102
1641.57	92
1646.76	94
1651.95	94
1657.13	86
1662.31	84
1667.48	82
1672.65	72
1677.81	74
1682.97	84
1688.12	84
1693.27	84
1698.41	86
1702.26	80