File: Mixture_Classification/Jesse_Dataset_v2/Pure Raman/Polypropylene oxide/785nm/ps-ppo-6jan25-0,0000-map2_Y09_X08.txt
204.377	368
211.048	328
217.712	318
224.369	450
231.019	838
237.661	852
244.297	596
250.924	372
257.546	254
264.16	192
270.766	174
277.365	182
283.958	220
290.543	364
297.121	418
303.693	304
310.256	258
316.813	212
323.362	218
329.905	228
336.441	270
342.969	206
349.491	204
356.006	198
362.513	178
369.014	180
375.508	176
381.994	138
388.473	124
394.947	120
401.412	132
407.871	142
414.323	206
420.768	140
427.206	116
433.637	94
440.062	80
446.479	76
452.89	74
459.293	86
465.691	106
472.081	144
478.463	226
484.84	290
491.21	170
497.573	106
503.929	92
510.279	148
516.621	162
522.957	142
529.287	228
535.609	388
541.925	408
548.234	198
554.536	204
560.832	368
567.12	1400
573.403	1876
579.679	480
585.948	312
592.211	252
598.466	200
604.715	102
610.958	84
617.194	90
623.424	102
629.647	126
635.864	142
642.074	128
648.276	98
654.473	78
660.664	72
666.847	64
673.025	54
679.195	58
685.36	60
691.517	56
697.669	50
703.814	60
709.953	78
716.085	94
722.21	70
728.33	74
734.443	80
740.549	86
746.65	130
752.743	116
758.831	92
764.912	62
770.986	68
777.055	74
783.117	86
789.173	68
795.222	64
801.265	66
807.302	78
813.333	68
819.357	78
825.376	122
831.387	468
837.392	226
843.392	102
849.386	94
855.372	78
861.353	78
867.328	74
873.296	64
879.258	62
885.214	62
891.164	60
897.108	52
903.046	50
908.977	54
914.903	58
920.822	56
926.735	56
932.643	64
938.543	64
944.439	86
950.328	148
956.21	280
962.088	354
967.958	216
973.824	120
979.682	82
985.534	72
991.382	68
997.222	64
1003.06	56
1008.89	58
1014.71	76
1020.53	76
1026.34	82
1032.14	92
1037.94	92
1043.73	80
1049.52	70
1055.3	72
1061.08	66
1066.85	56
1072.61	64
1078.37	62
1084.12	66
1089.87	62
1095.61	66
1101.34	70
1107.07	132
1112.8	326
1118.51	154
1124.22	98
1129.93	90
1135.63	84
1141.32	80
1147.01	78
1152.69	68
1158.37	84
1164.04	82
1169.71	80
1175.37	96
1181.02	126
1186.67	224
1192.31	160
1197.95	152
1203.58	176
1209.2	122
1214.82	80
1220.44	92
1226.05	106
1231.65	124
1237.25	98
1242.84	84
1248.42	92
1254	86
1259.58	88
1265.15	94
1270.71	96
1276.27	96
1281.82	118
1287.37	144
1292.91	178
1298.45	350
1303.98	742
1309.5	514
1315.02	260
1320.53	188
1326.04	166
1331.54	156
1337.04	136
1342.53	130
1348.02	158
1353.5	152
1358.98	138
1364.45	128
1369.91	148
1375.37	326
1380.82	406
1386.27	240
1391.71	142
1397.15	136
1402.58	128
1408.01	116
1413.43	142
1418.85	140
1424.26	152
1429.66	172
1435.06	182
1440.46	210
1445.85	180
1451.23	160
1456.61	150
1461.98	148
1467.35	150
1472.71	142
1478.07	136
1483.42	130
1488.77	116
1494.11	118
1499.45	108
1504.78	104
1510.11	110
1515.43	102
1520.74	92
1526.05	102
1531.36	100
1536.66	106
1541.95	100
1547.24	102
1552.52	108
1557.8	96
1563.08	102
1568.35	110
1573.61	120
1578.87	142
1584.12	172
1589.37	222
1594.61	322
1599.85	440
1605.08	408
1610.31	344
1615.53	226
1620.75	156
1625.96	104
1631.17	100
1636.37	90
1641.57	86
1646.76	78
1651.95	84
1657.13	82
1662.31	82
1667.48	84
1672.65	70
1677.81	72
1682.97	66
1688.12	78
1693.27	80
1698.41	70
1702.26	70