File: Mixture_Classification/Jesse_Dataset_v2/Pure Raman/Polypropylene oxide/785nm/ps-ppo-6jan25-0,0000-map2_Y05_X10.txt
204.377	392
211.048	348
217.712	336
224.369	476
231.019	932
237.661	894
244.297	656
250.924	422
257.546	262
264.16	208
270.766	192
277.365	192
283.958	224
290.543	396
297.121	472
303.693	338
310.256	276
316.813	240
323.362	238
329.905	252
336.441	258
342.969	222
349.491	208
356.006	216
362.513	202
369.014	198
375.508	192
381.994	156
388.473	126
394.947	122
401.412	120
407.871	164
414.323	216
420.768	178
427.206	134
433.637	98
440.062	84
446.479	82
452.89	84
459.293	84
465.691	100
472.081	146
478.463	218
484.84	296
491.21	190
497.573	118
503.929	100
510.279	160
516.621	172
522.957	158
529.287	224
535.609	430
541.925	424
548.234	220
554.536	228
560.832	392
567.12	1458
573.403	2068
579.679	514
585.948	350
592.211	282
598.466	220
604.715	104
610.958	96
617.194	102
623.424	110
629.647	138
635.864	148
642.074	142
648.276	108
654.473	86
660.664	78
666.847	64
673.025	62
679.195	62
685.36	62
691.517	62
697.669	56
703.814	68
709.953	80
716.085	102
722.21	78
728.33	76
734.443	84
740.549	100
746.65	130
752.743	120
758.831	92
764.912	70
770.986	68
777.055	82
783.117	76
789.173	70
795.222	68
801.265	68
807.302	80
813.333	76
819.357	80
825.376	138
831.387	488
837.392	248
843.392	110
849.386	94
855.372	84
861.353	78
867.328	66
873.296	58
879.258	62
885.214	58
891.164	60
897.108	66
903.046	58
908.977	54
914.903	56
920.822	62
926.735	66
932.643	60
938.543	70
944.439	90
950.328	158
956.21	284
962.088	390
967.958	228
973.824	134
979.682	80
985.534	74
991.382	80
997.222	66
1003.06	60
1008.89	72
1014.71	66
1020.53	70
1026.34	88
1032.14	100
1037.94	96
1043.73	86
1049.52	66
1055.3	66
1061.08	66
1066.85	66
1072.61	52
1078.37	58
1084.12	64
1089.87	66
1095.61	70
1101.34	76
1107.07	146
1112.8	364
1118.51	168
1124.22	108
1129.93	84
1135.63	92
1141.32	94
1147.01	76
1152.69	78
1158.37	82
1164.04	100
1169.71	90
1175.37	96
1181.02	144
1186.67	250
1192.31	172
1197.95	152
1203.58	170
1209.2	132
1214.82	98
1220.44	88
1226.05	108
1231.65	140
1237.25	96
1242.84	90
1248.42	90
1254	92
1259.58	84
1265.15	96
1270.71	98
1276.27	108
1281.82	126
1287.37	150
1292.91	180
1298.45	352
1303.98	770
1309.5	516
1315.02	258
1320.53	210
1326.04	170
1331.54	178
1337.04	160
1342.53	148
1348.02	150
1353.5	162
1358.98	146
1364.45	156
1369.91	198
1375.37	360
1380.82	454
1386.27	280
1391.71	162
1397.15	148
1402.58	142
1408.01	140
1413.43	144
1418.85	168
1424.26	186
1429.66	186
1435.06	194
1440.46	216
1445.85	186
1451.23	178
1456.61	162
1461.98	152
1467.35	156
1472.71	154
1478.07	156
1483.42	140
1488.77	134
1494.11	116
1499.45	116
1504.78	108
1510.11	104
1515.43	118
1520.74	106
1526.05	114
1531.36	102
1536.66	112
1541.95	108
1547.24	110
1552.52	114
1557.8	116
1563.08	110
1568.35	124
1573.61	134
1578.87	152
1584.12	182
1589.37	242
1594.61	342
1599.85	472
1605.08	486
1610.31	344
1615.53	256
1620.75	174
1625.96	138
1631.17	104
1636.37	100
1641.57	98
1646.76	92
1651.95	88
1657.13	86
1662.31	82
1667.48	82
1672.65	80
1677.81	80
1682.97	88
1688.12	84
1693.27	74
1698.41	86
1702.26	80