File: Mixture_Classification/Jesse_Dataset_v2/Pure Raman/Polypropylene oxide/785nm/ps-ppo-6jan25-0,0000-map2_Y06_X09.txt
204.377	388
211.048	336
217.712	334
224.369	484
231.019	888
237.661	908
244.297	656
250.924	404
257.546	270
264.16	218
270.766	166
277.365	190
283.958	238
290.543	364
297.121	436
303.693	328
310.256	252
316.813	218
323.362	234
329.905	264
336.441	260
342.969	212
349.491	204
356.006	226
362.513	204
369.014	190
375.508	198
381.994	150
388.473	136
394.947	126
401.412	122
407.871	158
414.323	214
420.768	164
427.206	120
433.637	96
440.062	84
446.479	80
452.89	84
459.293	88
465.691	100
472.081	154
478.463	220
484.84	296
491.21	166
497.573	114
503.929	98
510.279	162
516.621	176
522.957	152
529.287	236
535.609	422
541.925	410
548.234	216
554.536	208
560.832	404
567.12	1498
573.403	2008
579.679	514
585.948	314
592.211	278
598.466	208
604.715	112
610.958	96
617.194	104
623.424	108
629.647	132
635.864	146
642.074	134
648.276	106
654.473	88
660.664	74
666.847	62
673.025	64
679.195	58
685.36	68
691.517	58
697.669	58
703.814	66
709.953	82
716.085	94
722.21	76
728.33	66
734.443	88
740.549	82
746.65	144
752.743	114
758.831	98
764.912	60
770.986	70
777.055	68
783.117	84
789.173	70
795.222	66
801.265	62
807.302	70
813.333	70
819.357	86
825.376	140
831.387	506
837.392	250
843.392	96
849.386	100
855.372	96
861.353	76
867.328	74
873.296	62
879.258	62
885.214	58
891.164	54
897.108	58
903.046	56
908.977	58
914.903	54
920.822	52
926.735	60
932.643	62
938.543	72
944.439	94
950.328	154
956.21	298
962.088	370
967.958	226
973.824	146
979.682	88
985.534	76
991.382	68
997.222	64
1003.06	60
1008.89	66
1014.71	72
1020.53	78
1026.34	80
1032.14	98
1037.94	100
1043.73	76
1049.52	74
1055.3	64
1061.08	64
1066.85	66
1072.61	60
1078.37	62
1084.12	62
1089.87	64
1095.61	66
1101.34	80
1107.07	140
1112.8	372
1118.51	164
1124.22	92
1129.93	82
1135.63	76
1141.32	86
1147.01	76
1152.69	76
1158.37	86
1164.04	86
1169.71	90
1175.37	98
1181.02	142
1186.67	262
1192.31	166
1197.95	164
1203.58	174
1209.2	130
1214.82	94
1220.44	96
1226.05	114
1231.65	128
1237.25	106
1242.84	84
1248.42	90
1254	92
1259.58	98
1265.15	98
1270.71	100
1276.27	104
1281.82	132
1287.37	140
1292.91	200
1298.45	358
1303.98	808
1309.5	498
1315.02	268
1320.53	192
1326.04	172
1331.54	172
1337.04	152
1342.53	148
1348.02	160
1353.5	156
1358.98	152
1364.45	146
1369.91	180
1375.37	366
1380.82	426
1386.27	270
1391.71	160
1397.15	142
1402.58	126
1408.01	136
1413.43	140
1418.85	164
1424.26	184
1429.66	184
1435.06	202
1440.46	208
1445.85	206
1451.23	170
1456.61	172
1461.98	154
1467.35	156
1472.71	152
1478.07	148
1483.42	136
1488.77	120
1494.11	120
1499.45	106
1504.78	110
1510.11	110
1515.43	102
1520.74	110
1526.05	110
1531.36	110
1536.66	100
1541.95	112
1547.24	118
1552.52	112
1557.8	106
1563.08	96
1568.35	112
1573.61	120
1578.87	154
1584.12	180
1589.37	238
1594.61	348
1599.85	474
1605.08	438
1610.31	342
1615.53	258
1620.75	174
1625.96	128
1631.17	116
1636.37	102
1641.57	92
1646.76	86
1651.95	78
1657.13	78
1662.31	82
1667.48	72
1672.65	76
1677.81	74
1682.97	68
1688.12	80
1693.27	90
1698.41	80
1702.26	80