File: Mixture_Classification/Jesse_Dataset_v2/Pure Raman/Polypropylene oxide/785nm/ps-ppo-6jan25-0,0000-map2_Y10_X01.txt
204.377	338
211.048	306
217.712	308
224.369	428
231.019	812
237.661	810
244.297	578
250.924	352
257.546	250
264.16	198
270.766	164
277.365	172
283.958	210
290.543	330
297.121	376
303.693	278
310.256	238
316.813	226
323.362	218
329.905	228
336.441	216
342.969	198
349.491	192
356.006	206
362.513	166
369.014	166
375.508	164
381.994	132
388.473	122
394.947	112
401.412	120
407.871	146
414.323	198
420.768	150
427.206	112
433.637	86
440.062	80
446.479	76
452.89	80
459.293	78
465.691	84
472.081	134
478.463	196
484.84	270
491.21	180
497.573	104
503.929	88
510.279	142
516.621	162
522.957	144
529.287	204
535.609	364
541.925	354
548.234	200
554.536	194
560.832	358
567.12	1294
573.403	1718
579.679	430
585.948	296
592.211	230
598.466	186
604.715	100
610.958	86
617.194	84
623.424	94
629.647	120
635.864	134
642.074	116
648.276	96
654.473	68
660.664	70
666.847	60
673.025	56
679.195	54
685.36	58
691.517	54
697.669	54
703.814	66
709.953	80
716.085	88
722.21	74
728.33	76
734.443	74
740.549	76
746.65	128
752.743	112
758.831	84
764.912	66
770.986	64
777.055	72
783.117	66
789.173	56
795.222	64
801.265	60
807.302	66
813.333	66
819.357	76
825.376	126
831.387	432
837.392	230
843.392	92
849.386	88
855.372	82
861.353	72
867.328	70
873.296	60
879.258	56
885.214	58
891.164	54
897.108	50
903.046	58
908.977	48
914.903	52
920.822	58
926.735	56
932.643	54
938.543	72
944.439	80
950.328	128
956.21	266
962.088	334
967.958	208
973.824	122
979.682	78
985.534	70
991.382	70
997.222	60
1003.06	66
1008.89	60
1014.71	62
1020.53	76
1026.34	70
1032.14	94
1037.94	88
1043.73	82
1049.52	64
1055.3	70
1061.08	62
1066.85	62
1072.61	58
1078.37	60
1084.12	62
1089.87	60
1095.61	68
1101.34	68
1107.07	128
1112.8	312
1118.51	136
1124.22	100
1129.93	74
1135.63	76
1141.32	86
1147.01	68
1152.69	60
1158.37	82
1164.04	84
1169.71	80
1175.37	84
1181.02	140
1186.67	212
1192.31	154
1197.95	134
1203.58	160
1209.2	110
1214.82	90
1220.44	86
1226.05	108
1231.65	126
1237.25	82
1242.84	76
1248.42	82
1254	86
1259.58	90
1265.15	90
1270.71	80
1276.27	106
1281.82	106
1287.37	142
1292.91	166
1298.45	304
1303.98	680
1309.5	466
1315.02	242
1320.53	174
1326.04	166
1331.54	148
1337.04	124
1342.53	136
1348.02	146
1353.5	142
1358.98	132
1364.45	140
1369.91	162
1375.37	294
1380.82	350
1386.27	246
1391.71	144
1397.15	110
1402.58	126
1408.01	118
1413.43	124
1418.85	142
1424.26	164
1429.66	166
1435.06	172
1440.46	194
1445.85	180
1451.23	158
1456.61	136
1461.98	136
1467.35	132
1472.71	128
1478.07	124
1483.42	130
1488.77	118
1494.11	98
1499.45	96
1504.78	104
1510.11	102
1515.43	100
1520.74	90
1526.05	114
1531.36	78
1536.66	94
1541.95	94
1547.24	102
1552.52	92
1557.8	98
1563.08	106
1568.35	98
1573.61	106
1578.87	126
1584.12	162
1589.37	218
1594.61	300
1599.85	418
1605.08	394
1610.31	314
1615.53	214
1620.75	148
1625.96	122
1631.17	106
1636.37	80
1641.57	82
1646.76	72
1651.95	76
1657.13	82
1662.31	72
1667.48	72
1672.65	76
1677.81	72
1682.97	70
1688.12	72
1693.27	80
1698.41	70
1702.26	64