File: Mixture_Classification/Jesse_Dataset_v2/Pure Raman/Polypropylene oxide/785nm/ps-ppo-6jan25-0,0000-map2_Y07_X00.txt
204.377	382
211.048	350
217.712	366
224.369	466
231.019	892
237.661	884
244.297	606
250.924	390
257.546	250
264.16	214
270.766	182
277.365	182
283.958	238
290.543	376
297.121	432
303.693	312
310.256	250
316.813	232
323.362	248
329.905	234
336.441	244
342.969	228
349.491	208
356.006	214
362.513	184
369.014	190
375.508	188
381.994	156
388.473	140
394.947	130
401.412	132
407.871	154
414.323	208
420.768	176
427.206	126
433.637	92
440.062	82
446.479	76
452.89	78
459.293	82
465.691	92
472.081	162
478.463	228
484.84	294
491.21	174
497.573	114
503.929	100
510.279	162
516.621	164
522.957	152
529.287	240
535.609	418
541.925	414
548.234	214
554.536	210
560.832	400
567.12	1400
573.403	1922
579.679	504
585.948	324
592.211	266
598.466	200
604.715	112
610.958	84
617.194	88
623.424	118
629.647	130
635.864	156
642.074	134
648.276	100
654.473	84
660.664	74
666.847	70
673.025	64
679.195	62
685.36	62
691.517	58
697.669	56
703.814	62
709.953	78
716.085	84
722.21	70
728.33	74
734.443	86
740.549	102
746.65	144
752.743	110
758.831	102
764.912	66
770.986	66
777.055	76
783.117	76
789.173	72
795.222	60
801.265	66
807.302	68
813.333	70
819.357	88
825.376	134
831.387	466
837.392	238
843.392	104
849.386	96
855.372	92
861.353	82
867.328	70
873.296	66
879.258	62
885.214	66
891.164	62
897.108	56
903.046	52
908.977	58
914.903	56
920.822	58
926.735	64
932.643	68
938.543	76
944.439	96
950.328	150
956.21	292
962.088	388
967.958	238
973.824	122
979.682	86
985.534	80
991.382	88
997.222	60
1003.06	58
1008.89	70
1014.71	70
1020.53	72
1026.34	82
1032.14	98
1037.94	90
1043.73	80
1049.52	66
1055.3	64
1061.08	60
1066.85	60
1072.61	64
1078.37	66
1084.12	66
1089.87	62
1095.61	66
1101.34	80
1107.07	138
1112.8	336
1118.51	154
1124.22	102
1129.93	82
1135.63	90
1141.32	98
1147.01	86
1152.69	76
1158.37	88
1164.04	94
1169.71	90
1175.37	98
1181.02	142
1186.67	254
1192.31	170
1197.95	144
1203.58	174
1209.2	130
1214.82	88
1220.44	86
1226.05	112
1231.65	134
1237.25	96
1242.84	94
1248.42	88
1254	72
1259.58	90
1265.15	90
1270.71	90
1276.27	108
1281.82	126
1287.37	156
1292.91	182
1298.45	320
1303.98	738
1309.5	514
1315.02	262
1320.53	192
1326.04	180
1331.54	150
1337.04	156
1342.53	150
1348.02	164
1353.5	164
1358.98	158
1364.45	144
1369.91	176
1375.37	336
1380.82	426
1386.27	280
1391.71	152
1397.15	128
1402.58	132
1408.01	132
1413.43	142
1418.85	150
1424.26	176
1429.66	182
1435.06	206
1440.46	224
1445.85	182
1451.23	168
1456.61	164
1461.98	148
1467.35	154
1472.71	148
1478.07	144
1483.42	140
1488.77	130
1494.11	124
1499.45	112
1504.78	112
1510.11	114
1515.43	110
1520.74	100
1526.05	112
1531.36	106
1536.66	104
1541.95	108
1547.24	104
1552.52	112
1557.8	114
1563.08	110
1568.35	120
1573.61	128
1578.87	142
1584.12	168
1589.37	248
1594.61	338
1599.85	468
1605.08	470
1610.31	348
1615.53	242
1620.75	168
1625.96	146
1631.17	104
1636.37	94
1641.57	98
1646.76	88
1651.95	86
1657.13	74
1662.31	80
1667.48	82
1672.65	76
1677.81	74
1682.97	82
1688.12	74
1693.27	84
1698.41	86
1702.26	80