File: Mixture_Classification/Jesse_Dataset_v2/Pure Raman/Polypropylene oxide/785nm/ps-ppo-6jan25-0,0000-map2_Y05_X01.txt
204.377	386
211.048	336
217.712	358
224.369	484
231.019	928
237.661	936
244.297	662
250.924	416
257.546	270
264.16	210
270.766	174
277.365	202
283.958	246
290.543	384
297.121	444
303.693	326
310.256	280
316.813	224
323.362	226
329.905	260
336.441	242
342.969	226
349.491	220
356.006	222
362.513	182
369.014	208
375.508	192
381.994	154
388.473	138
394.947	130
401.412	124
407.871	158
414.323	228
420.768	158
427.206	124
433.637	102
440.062	76
446.479	82
452.89	86
459.293	84
465.691	106
472.081	154
478.463	220
484.84	292
491.21	174
497.573	118
503.929	102
510.279	164
516.621	168
522.957	146
529.287	246
535.609	416
541.925	438
548.234	232
554.536	222
560.832	408
567.12	1430
573.403	2006
579.679	528
585.948	338
592.211	288
598.466	202
604.715	112
610.958	96
617.194	94
623.424	110
629.647	140
635.864	158
642.074	124
648.276	96
654.473	92
660.664	74
666.847	62
673.025	64
679.195	60
685.36	62
691.517	60
697.669	58
703.814	60
709.953	76
716.085	108
722.21	70
728.33	84
734.443	76
740.549	100
746.65	140
752.743	132
758.831	76
764.912	68
770.986	78
777.055	80
783.117	74
789.173	68
795.222	64
801.265	74
807.302	76
813.333	72
819.357	82
825.376	146
831.387	490
837.392	258
843.392	96
849.386	110
855.372	84
861.353	76
867.328	72
873.296	68
879.258	58
885.214	60
891.164	52
897.108	56
903.046	62
908.977	54
914.903	56
920.822	54
926.735	62
932.643	66
938.543	72
944.439	92
950.328	156
956.21	298
962.088	358
967.958	240
973.824	130
979.682	84
985.534	78
991.382	72
997.222	60
1003.06	66
1008.89	62
1014.71	64
1020.53	80
1026.34	88
1032.14	102
1037.94	100
1043.73	78
1049.52	66
1055.3	70
1061.08	62
1066.85	54
1072.61	68
1078.37	64
1084.12	68
1089.87	64
1095.61	62
1101.34	76
1107.07	146
1112.8	352
1118.51	156
1124.22	100
1129.93	90
1135.63	80
1141.32	90
1147.01	76
1152.69	74
1158.37	84
1164.04	100
1169.71	88
1175.37	94
1181.02	150
1186.67	248
1192.31	164
1197.95	156
1203.58	184
1209.2	130
1214.82	94
1220.44	92
1226.05	108
1231.65	134
1237.25	94
1242.84	88
1248.42	88
1254	96
1259.58	90
1265.15	100
1270.71	106
1276.27	110
1281.82	136
1287.37	152
1292.91	202
1298.45	336
1303.98	764
1309.5	498
1315.02	276
1320.53	206
1326.04	182
1331.54	174
1337.04	144
1342.53	154
1348.02	172
1353.5	152
1358.98	140
1364.45	146
1369.91	174
1375.37	348
1380.82	402
1386.27	290
1391.71	156
1397.15	142
1402.58	134
1408.01	128
1413.43	148
1418.85	174
1424.26	188
1429.66	182
1435.06	206
1440.46	236
1445.85	210
1451.23	178
1456.61	168
1461.98	154
1467.35	150
1472.71	158
1478.07	150
1483.42	138
1488.77	116
1494.11	124
1499.45	118
1504.78	114
1510.11	116
1515.43	114
1520.74	108
1526.05	102
1531.36	110
1536.66	100
1541.95	102
1547.24	100
1552.52	116
1557.8	110
1563.08	114
1568.35	114
1573.61	132
1578.87	146
1584.12	178
1589.37	230
1594.61	340
1599.85	458
1605.08	462
1610.31	362
1615.53	252
1620.75	172
1625.96	124
1631.17	104
1636.37	98
1641.57	94
1646.76	88
1651.95	92
1657.13	80
1662.31	80
1667.48	82
1672.65	84
1677.81	76
1682.97	74
1688.12	74
1693.27	74
1698.41	74
1702.26	78