File: Mixture_Classification/Jesse_Dataset_v2/Pure Raman/Polystyrene/633nm/ps-ppo-7jan25-1,0000-map3_Y08_X00.txt
182.393	1092
192.79	1014
203.174	1026
213.542	1088
223.897	1140
234.238	936
244.566	594
254.878	452
265.178	418
275.463	374
285.734	350
295.992	302
306.236	296
316.467	312
326.684	316
336.887	296
347.075	288
357.251	294
367.413	276
377.562	308
387.697	330
397.819	368
407.926	408
418.02	342
428.101	306
438.169	306
448.223	284
458.264	246
468.291	250
478.306	236
488.307	242
498.294	264
508.269	258
518.23	262
528.177	270
538.113	300
548.034	298
557.942	336
567.838	318
577.72	290
587.589	236
597.446	270
607.289	304
617.119	506
626.936	564
636.741	294
646.533	256
656.313	236
666.078	238
675.831	226
685.571	220
695.299	240
705.014	272
714.716	280
724.406	358
734.082	316
743.746	456
753.398	468
763.037	552
772.664	496
782.278	534
791.879	714
801.467	674
811.044	436
820.608	340
830.16	326
839.699	434
849.226	376
858.741	344
868.243	368
877.731	342
887.209	344
896.674	352
906.128	412
915.569	362
924.997	330
934.414	326
943.818	324
953.211	334
962.59	388
971.958	412
981.314	538
990.659	1230
999.99	4332
1009.31	1632
1018.62	562
1027.91	1240
1037.2	1514
1046.47	550
1055.73	464
1064.98	480
1074.22	510
1083.44	494
1092.65	506
1101.86	500
1111.05	416
1120.22	380
1129.39	334
1138.54	382
1147.69	508
1156.82	1034
1165.94	606
1175.05	686
1184.14	1298
1193.23	1188
1202.3	1222
1211.36	792
1220.41	554
1229.45	484
1238.48	442
1247.5	412
1256.5	394
1265.49	412
1274.48	388
1283.45	414
1292.41	422
1301.36	474
1310.29	468
1319.22	510
1328.13	576
1337.04	550
1345.93	456
1354.81	428
1363.68	428
1372.54	430
1381.38	384
1390.22	332
1399.05	330
1407.86	318
1416.66	314
1425.46	296
1434.24	372
1443.01	522
1451.77	638
1460.52	438
1469.25	322
1477.98	300
1486.7	304
1495.4	342
1504.1	302
1512.78	304
1521.45	306
1530.11	304
1538.76	314
1547.41	326
1556.03	346
1564.65	354
1573.26	414
1581.86	828
1590.45	614
1599.02	1292
1607.59	1318
1616.14	514
1624.69	406
1633.22	366
1641.75	358
1650.26	378
1658.76	312
1667.26	310
1675.74	306
1684.21	336
1692.67	318
1701.12	330
1709.56	302
1717.99	306
1726.41	300
1734.82	284
1743.22	294
1751.61	306
1759.99	288
1768.36	322
1776.71	294
1785.06	322
1793.4	324
1801.73	318
1810.04	314
1818.35	324
1826.65	314
1834.94	334
1843.21	320
1851.48	324
1859.74	338
1867.98	304
1876.22	308
1884.45	328
1892.67	300
1900.87	306
1909.07	312
1917.26	338
1925.43	320
1933.6	322
1941.76	338
1949.91	318
1958.05	326
1966.17	346
1974.29	336
1982.4	328
1990.5	340
1998.59	316
2006.67	328
2014.74	304
2022.8	340
2030.85	344
2038.89	324
2046.92	326
2054.94	340
2062.95	326
2070.96	342
2078.95	336
2086.93	326
2094.91	342
2102.87	332
2110.83	328
2118.77	342
2126.71	338
2134.63	338
2142.55	348
2150.46	368
2158.35	338
2166.24	362
2174.12	356
2181.99	334
2189.85	360
2197.7	354
2205.55	358
2213.38	346
2221.2	348
2229.02	356
2236.82	346
2244.62	354
2252.4	366
2260.18	360
2267.95	352
2275.71	362
2283.46	360
2291.2	352
2298.93	342
2306.65	346
2314.37	362
2322.07	366
2329.77	360
2337.45	352
2345.13	344
2352.8	358
2360.46	362
2368.11	364
2375.75	354
2383.38	358
2391.01	354
2398.62	354
2406.23	350
2413.82	342
2421.41	348
2428.99	388
2436.56	364
2444.12	376
2449.79	366