File: Mixture_Classification/Jesse_Dataset_v2/Pure Raman/Polystyrene/633nm/ps-ppo-7jan25-1,0000-map3_Y03_X02.txt
182.393	978
192.79	906
203.174	956
213.542	1042
223.897	1058
234.238	842
244.566	512
254.878	386
265.178	324
275.463	302
285.734	272
295.992	238
306.236	230
316.467	234
326.684	230
336.887	244
347.075	210
357.251	204
367.413	204
377.562	242
387.697	256
397.819	280
407.926	340
418.02	284
428.101	232
438.169	206
448.223	210
458.264	172
468.291	168
478.306	168
488.307	164
498.294	188
508.269	184
518.23	186
528.177	220
538.113	240
548.034	248
557.942	240
567.838	242
577.72	242
587.589	214
597.446	214
607.289	272
617.119	390
626.936	526
636.741	212
646.533	176
656.313	172
666.078	172
675.831	174
685.571	172
695.299	162
705.014	202
714.716	208
724.406	292
734.082	272
743.746	376
753.398	436
763.037	458
772.664	414
782.278	462
791.879	648
801.467	610
811.044	396
820.608	282
830.16	266
839.699	334
849.226	328
858.741	288
868.243	294
877.731	298
887.209	268
896.674	300
906.128	336
915.569	298
924.997	242
934.414	252
943.818	248
953.211	266
962.59	314
971.958	334
981.314	446
990.659	1156
999.99	4154
1009.31	1566
1018.62	464
1027.91	1198
1037.2	1440
1046.47	500
1055.73	394
1064.98	420
1074.22	418
1083.44	424
1092.65	392
1101.86	410
1111.05	346
1120.22	312
1129.39	266
1138.54	312
1147.69	392
1156.82	988
1165.94	520
1175.05	644
1184.14	1210
1193.23	1132
1202.3	1166
1211.36	738
1220.41	500
1229.45	410
1238.48	392
1247.5	340
1256.5	352
1265.49	354
1274.48	328
1283.45	344
1292.41	384
1301.36	384
1310.29	406
1319.22	462
1328.13	532
1337.04	480
1345.93	394
1354.81	360
1363.68	380
1372.54	372
1381.38	342
1390.22	272
1399.05	270
1407.86	266
1416.66	266
1425.46	274
1434.24	302
1443.01	480
1451.77	610
1460.52	396
1469.25	262
1477.98	258
1486.7	254
1495.4	286
1504.1	264
1512.78	246
1521.45	268
1530.11	262
1538.76	252
1547.41	288
1556.03	274
1564.65	304
1573.26	372
1581.86	784
1590.45	606
1599.02	1212
1607.59	1304
1616.14	488
1624.69	342
1633.22	312
1641.75	310
1650.26	352
1658.76	288
1667.26	284
1675.74	274
1684.21	296
1692.67	284
1701.12	272
1709.56	288
1717.99	274
1726.41	288
1734.82	292
1743.22	260
1751.61	266
1759.99	272
1768.36	280
1776.71	282
1785.06	262
1793.4	276
1801.73	282
1810.04	296
1818.35	294
1826.65	266
1834.94	290
1843.21	278
1851.48	264
1859.74	288
1867.98	288
1876.22	298
1884.45	292
1892.67	304
1900.87	292
1909.07	296
1917.26	286
1925.43	298
1933.6	296
1941.76	316
1949.91	306
1958.05	318
1966.17	288
1974.29	302
1982.4	292
1990.5	306
1998.59	306
2006.67	298
2014.74	310
2022.8	324
2030.85	302
2038.89	308
2046.92	310
2054.94	308
2062.95	326
2070.96	322
2078.95	318
2086.93	322
2094.91	324
2102.87	314
2110.83	318
2118.77	334
2126.71	328
2134.63	318
2142.55	324
2150.46	336
2158.35	330
2166.24	310
2174.12	332
2181.99	318
2189.85	316
2197.7	326
2205.55	336
2213.38	336
2221.2	336
2229.02	348
2236.82	342
2244.62	340
2252.4	326
2260.18	312
2267.95	330
2275.71	340
2283.46	316
2291.2	344
2298.93	346
2306.65	338
2314.37	340
2322.07	336
2329.77	344
2337.45	326
2345.13	344
2352.8	342
2360.46	332
2368.11	354
2375.75	350
2383.38	342
2391.01	352
2398.62	334
2406.23	338
2413.82	346
2421.41	372
2428.99	362
2436.56	352
2444.12	374
2449.79	360