File: Mixture_Classification/Jesse_Dataset_v2/Pure Raman/Polystyrene/633nm/ps-ppo-7jan25-1,0000-map3_Y09_X10.txt
182.393	1008
192.79	934
203.174	916
213.542	1014
223.897	1058
234.238	824
244.566	522
254.878	372
265.178	336
275.463	304
285.734	288
295.992	232
306.236	224
316.467	234
326.684	226
336.887	232
347.075	204
357.251	202
367.413	206
377.562	224
387.697	270
397.819	274
407.926	328
418.02	284
428.101	236
438.169	222
448.223	200
458.264	184
468.291	180
478.306	174
488.307	172
498.294	174
508.269	192
518.23	190
528.177	196
538.113	246
548.034	260
557.942	244
567.838	240
577.72	240
587.589	204
597.446	204
607.289	258
617.119	412
626.936	524
636.741	214
646.533	172
656.313	164
666.078	156
675.831	168
685.571	178
695.299	170
705.014	200
714.716	194
724.406	280
734.082	272
743.746	362
753.398	420
763.037	480
772.664	416
782.278	430
791.879	648
801.467	616
811.044	396
820.608	292
830.16	256
839.699	332
849.226	330
858.741	296
868.243	272
877.731	278
887.209	272
896.674	270
906.128	342
915.569	310
924.997	248
934.414	234
943.818	240
953.211	256
962.59	300
971.958	310
981.314	482
990.659	1192
999.99	4250
1009.31	1468
1018.62	460
1027.91	1182
1037.2	1386
1046.47	468
1055.73	392
1064.98	412
1074.22	424
1083.44	418
1092.65	400
1101.86	406
1111.05	334
1120.22	292
1129.39	270
1138.54	282
1147.69	396
1156.82	958
1165.94	522
1175.05	602
1184.14	1198
1193.23	1098
1202.3	1134
1211.36	718
1220.41	476
1229.45	426
1238.48	366
1247.5	356
1256.5	356
1265.49	356
1274.48	334
1283.45	356
1292.41	370
1301.36	378
1310.29	428
1319.22	426
1328.13	514
1337.04	478
1345.93	376
1354.81	354
1363.68	376
1372.54	384
1381.38	332
1390.22	274
1399.05	258
1407.86	258
1416.66	254
1425.46	258
1434.24	336
1443.01	488
1451.77	580
1460.52	378
1469.25	278
1477.98	262
1486.7	260
1495.4	302
1504.1	272
1512.78	252
1521.45	258
1530.11	266
1538.76	274
1547.41	268
1556.03	292
1564.65	302
1573.26	380
1581.86	752
1590.45	580
1599.02	1220
1607.59	1264
1616.14	474
1624.69	358
1633.22	300
1641.75	302
1650.26	336
1658.76	296
1667.26	276
1675.74	290
1684.21	296
1692.67	282
1701.12	284
1709.56	284
1717.99	276
1726.41	262
1734.82	260
1743.22	286
1751.61	296
1759.99	258
1768.36	264
1776.71	290
1785.06	270
1793.4	276
1801.73	280
1810.04	274
1818.35	290
1826.65	310
1834.94	270
1843.21	306
1851.48	290
1859.74	288
1867.98	288
1876.22	282
1884.45	290
1892.67	272
1900.87	290
1909.07	298
1917.26	300
1925.43	294
1933.6	302
1941.76	300
1949.91	286
1958.05	314
1966.17	302
1974.29	318
1982.4	302
1990.5	290
1998.59	292
2006.67	304
2014.74	300
2022.8	310
2030.85	296
2038.89	320
2046.92	314
2054.94	310
2062.95	318
2070.96	326
2078.95	320
2086.93	324
2094.91	322
2102.87	304
2110.83	316
2118.77	324
2126.71	324
2134.63	336
2142.55	322
2150.46	320
2158.35	340
2166.24	322
2174.12	318
2181.99	330
2189.85	334
2197.7	324
2205.55	338
2213.38	336
2221.2	336
2229.02	314
2236.82	336
2244.62	326
2252.4	338
2260.18	318
2267.95	344
2275.71	336
2283.46	318
2291.2	342
2298.93	318
2306.65	352
2314.37	338
2322.07	326
2329.77	346
2337.45	336
2345.13	356
2352.8	336
2360.46	330
2368.11	336
2375.75	348
2383.38	346
2391.01	350
2398.62	354
2406.23	348
2413.82	340
2421.41	352
2428.99	360
2436.56	338
2444.12	368
2449.79	368