File: Mixture_Classification/Jesse_Dataset_v2/Pure Raman/Polystyrene/633nm/ps-ppo-7jan25-1,0000-map3_Y00_X03.txt
182.393	1058
192.79	964
203.174	980
213.542	1092
223.897	1084
234.238	888
244.566	580
254.878	432
265.178	370
275.463	334
285.734	310
295.992	306
306.236	290
316.467	296
326.684	296
336.887	284
347.075	266
357.251	264
367.413	248
377.562	284
387.697	312
397.819	332
407.926	396
418.02	318
428.101	286
438.169	260
448.223	226
458.264	202
468.291	218
478.306	230
488.307	218
498.294	214
508.269	242
518.23	236
528.177	260
538.113	286
548.034	286
557.942	284
567.838	290
577.72	278
587.589	246
597.446	252
607.289	286
617.119	472
626.936	562
636.741	260
646.533	214
656.313	208
666.078	206
675.831	206
685.571	194
695.299	212
705.014	250
714.716	246
724.406	320
734.082	292
743.746	418
753.398	444
763.037	508
772.664	464
782.278	488
791.879	676
801.467	654
811.044	434
820.608	316
830.16	308
839.699	378
849.226	382
858.741	322
868.243	316
877.731	330
887.209	322
896.674	330
906.128	384
915.569	340
924.997	294
934.414	292
943.818	292
953.211	304
962.59	346
971.958	356
981.314	496
990.659	1194
999.99	4292
1009.31	1604
1018.62	494
1027.91	1230
1037.2	1468
1046.47	526
1055.73	424
1064.98	478
1074.22	494
1083.44	456
1092.65	478
1101.86	454
1111.05	384
1120.22	360
1129.39	326
1138.54	346
1147.69	446
1156.82	1048
1165.94	574
1175.05	632
1184.14	1248
1193.23	1156
1202.3	1198
1211.36	772
1220.41	520
1229.45	478
1238.48	408
1247.5	414
1256.5	392
1265.49	418
1274.48	408
1283.45	408
1292.41	412
1301.36	488
1310.29	482
1319.22	504
1328.13	570
1337.04	522
1345.93	452
1354.81	436
1363.68	418
1372.54	438
1381.38	398
1390.22	312
1399.05	308
1407.86	320
1416.66	318
1425.46	332
1434.24	386
1443.01	554
1451.77	652
1460.52	428
1469.25	330
1477.98	322
1486.7	310
1495.4	352
1504.1	318
1512.78	316
1521.45	310
1530.11	314
1538.76	318
1547.41	324
1556.03	338
1564.65	356
1573.26	418
1581.86	826
1590.45	642
1599.02	1274
1607.59	1326
1616.14	510
1624.69	408
1633.22	360
1641.75	362
1650.26	404
1658.76	346
1667.26	308
1675.74	336
1684.21	326
1692.67	328
1701.12	340
1709.56	332
1717.99	326
1726.41	320
1734.82	330
1743.22	328
1751.61	312
1759.99	338
1768.36	304
1776.71	326
1785.06	324
1793.4	332
1801.73	340
1810.04	328
1818.35	330
1826.65	332
1834.94	344
1843.21	340
1851.48	336
1859.74	334
1867.98	322
1876.22	338
1884.45	336
1892.67	336
1900.87	352
1909.07	368
1917.26	342
1925.43	354
1933.6	342
1941.76	342
1949.91	322
1958.05	342
1966.17	352
1974.29	368
1982.4	350
1990.5	338
1998.59	344
2006.67	358
2014.74	344
2022.8	354
2030.85	364
2038.89	366
2046.92	370
2054.94	350
2062.95	366
2070.96	344
2078.95	356
2086.93	370
2094.91	340
2102.87	336
2110.83	352
2118.77	374
2126.71	382
2134.63	372
2142.55	376
2150.46	366
2158.35	374
2166.24	378
2174.12	364
2181.99	364
2189.85	378
2197.7	378
2205.55	344
2213.38	366
2221.2	354
2229.02	350
2236.82	370
2244.62	372
2252.4	368
2260.18	354
2267.95	388
2275.71	374
2283.46	360
2291.2	376
2298.93	372
2306.65	376
2314.37	384
2322.07	380
2329.77	372
2337.45	372
2345.13	374
2352.8	380
2360.46	384
2368.11	382
2375.75	378
2383.38	370
2391.01	364
2398.62	372
2406.23	366
2413.82	368
2421.41	388
2428.99	360
2436.56	398
2444.12	402
2449.79	396