File: Mixture_Classification/Jesse_Dataset_v2/Pure Raman/Polystyrene/633nm/ps-ppo-7jan25-1,0000-map3_Y09_X05.txt
182.393	1032
192.79	938
203.174	932
213.542	1046
223.897	1092
234.238	804
244.566	520
254.878	386
265.178	342
275.463	296
285.734	276
295.992	250
306.236	226
316.467	228
326.684	258
336.887	232
347.075	210
357.251	204
367.413	212
377.562	222
387.697	268
397.819	276
407.926	322
418.02	284
428.101	248
438.169	210
448.223	196
458.264	168
468.291	172
478.306	156
488.307	178
498.294	160
508.269	182
518.23	194
528.177	206
538.113	230
548.034	238
557.942	246
567.838	238
577.72	248
587.589	184
597.446	194
607.289	250
617.119	436
626.936	534
636.741	218
646.533	176
656.313	168
666.078	148
675.831	162
685.571	148
695.299	178
705.014	218
714.716	208
724.406	288
734.082	262
743.746	378
753.398	434
763.037	486
772.664	426
782.278	438
791.879	636
801.467	630
811.044	408
820.608	298
830.16	252
839.699	340
849.226	340
858.741	294
868.243	286
877.731	286
887.209	262
896.674	260
906.128	340
915.569	278
924.997	238
934.414	242
943.818	244
953.211	270
962.59	276
971.958	294
981.314	456
990.659	1154
999.99	4186
1009.31	1516
1018.62	456
1027.91	1160
1037.2	1410
1046.47	478
1055.73	372
1064.98	400
1074.22	428
1083.44	408
1092.65	418
1101.86	408
1111.05	342
1120.22	302
1129.39	260
1138.54	288
1147.69	406
1156.82	966
1165.94	516
1175.05	616
1184.14	1178
1193.23	1148
1202.3	1152
1211.36	728
1220.41	454
1229.45	398
1238.48	372
1247.5	350
1256.5	342
1265.49	342
1274.48	342
1283.45	356
1292.41	364
1301.36	390
1310.29	418
1319.22	472
1328.13	526
1337.04	476
1345.93	392
1354.81	370
1363.68	356
1372.54	378
1381.38	342
1390.22	270
1399.05	260
1407.86	272
1416.66	250
1425.46	254
1434.24	308
1443.01	478
1451.77	578
1460.52	364
1469.25	250
1477.98	266
1486.7	274
1495.4	284
1504.1	268
1512.78	256
1521.45	256
1530.11	260
1538.76	270
1547.41	276
1556.03	256
1564.65	302
1573.26	354
1581.86	812
1590.45	602
1599.02	1238
1607.59	1296
1616.14	466
1624.69	308
1633.22	304
1641.75	318
1650.26	326
1658.76	306
1667.26	280
1675.74	280
1684.21	274
1692.67	282
1701.12	268
1709.56	278
1717.99	260
1726.41	274
1734.82	264
1743.22	256
1751.61	278
1759.99	250
1768.36	266
1776.71	276
1785.06	284
1793.4	254
1801.73	288
1810.04	294
1818.35	270
1826.65	278
1834.94	280
1843.21	290
1851.48	290
1859.74	294
1867.98	280
1876.22	274
1884.45	292
1892.67	312
1900.87	298
1909.07	292
1917.26	290
1925.43	296
1933.6	298
1941.76	300
1949.91	286
1958.05	294
1966.17	306
1974.29	306
1982.4	302
1990.5	300
1998.59	300
2006.67	312
2014.74	324
2022.8	302
2030.85	302
2038.89	292
2046.92	312
2054.94	304
2062.95	320
2070.96	318
2078.95	316
2086.93	300
2094.91	294
2102.87	304
2110.83	338
2118.77	312
2126.71	320
2134.63	308
2142.55	296
2150.46	326
2158.35	326
2166.24	306
2174.12	322
2181.99	320
2189.85	324
2197.7	332
2205.55	322
2213.38	298
2221.2	334
2229.02	326
2236.82	326
2244.62	332
2252.4	312
2260.18	350
2267.95	314
2275.71	328
2283.46	332
2291.2	338
2298.93	330
2306.65	332
2314.37	336
2322.07	338
2329.77	344
2337.45	330
2345.13	334
2352.8	340
2360.46	338
2368.11	354
2375.75	328
2383.38	332
2391.01	330
2398.62	334
2406.23	350
2413.82	346
2421.41	338
2428.99	340
2436.56	340
2444.12	342
2449.79	348