File: Mixture_Classification/Jesse_Dataset_v2/Pure Raman/Polystyrene/633nm/ps-ppo-7jan25-1,0000-map3_Y10_X02.txt
182.393	1020
192.79	936
203.174	944
213.542	1020
223.897	1068
234.238	814
244.566	538
254.878	366
265.178	340
275.463	314
285.734	290
295.992	246
306.236	218
316.467	234
326.684	244
336.887	220
347.075	218
357.251	216
367.413	220
377.562	230
387.697	262
397.819	294
407.926	374
418.02	278
428.101	246
438.169	206
448.223	206
458.264	170
468.291	178
478.306	174
488.307	168
498.294	182
508.269	188
518.23	194
528.177	220
538.113	248
548.034	252
557.942	264
567.838	248
577.72	230
587.589	196
597.446	200
607.289	268
617.119	428
626.936	516
636.741	202
646.533	178
656.313	166
666.078	156
675.831	170
685.571	154
695.299	164
705.014	194
714.716	200
724.406	286
734.082	262
743.746	364
753.398	400
763.037	464
772.664	440
782.278	446
791.879	634
801.467	618
811.044	364
820.608	284
830.16	258
839.699	332
849.226	328
858.741	290
868.243	274
877.731	258
887.209	276
896.674	278
906.128	334
915.569	310
924.997	246
934.414	248
943.818	264
953.211	248
962.59	294
971.958	322
981.314	450
990.659	1178
999.99	4212
1009.31	1550
1018.62	446
1027.91	1180
1037.2	1396
1046.47	472
1055.73	382
1064.98	384
1074.22	440
1083.44	426
1092.65	402
1101.86	396
1111.05	340
1120.22	300
1129.39	268
1138.54	278
1147.69	402
1156.82	956
1165.94	500
1175.05	600
1184.14	1166
1193.23	1100
1202.3	1106
1211.36	696
1220.41	456
1229.45	430
1238.48	368
1247.5	334
1256.5	328
1265.49	324
1274.48	330
1283.45	312
1292.41	368
1301.36	396
1310.29	408
1319.22	464
1328.13	516
1337.04	454
1345.93	396
1354.81	380
1363.68	378
1372.54	378
1381.38	346
1390.22	266
1399.05	260
1407.86	270
1416.66	260
1425.46	258
1434.24	318
1443.01	468
1451.77	572
1460.52	378
1469.25	288
1477.98	272
1486.7	274
1495.4	292
1504.1	250
1512.78	264
1521.45	264
1530.11	278
1538.76	258
1547.41	272
1556.03	296
1564.65	300
1573.26	368
1581.86	792
1590.45	604
1599.02	1204
1607.59	1312
1616.14	450
1624.69	334
1633.22	310
1641.75	320
1650.26	328
1658.76	284
1667.26	268
1675.74	290
1684.21	290
1692.67	286
1701.12	296
1709.56	274
1717.99	274
1726.41	260
1734.82	266
1743.22	278
1751.61	280
1759.99	278
1768.36	286
1776.71	278
1785.06	262
1793.4	270
1801.73	290
1810.04	274
1818.35	294
1826.65	294
1834.94	282
1843.21	286
1851.48	302
1859.74	272
1867.98	264
1876.22	290
1884.45	288
1892.67	288
1900.87	278
1909.07	290
1917.26	296
1925.43	276
1933.6	308
1941.76	294
1949.91	280
1958.05	304
1966.17	308
1974.29	302
1982.4	294
1990.5	298
1998.59	322
2006.67	302
2014.74	302
2022.8	316
2030.85	294
2038.89	326
2046.92	312
2054.94	292
2062.95	316
2070.96	302
2078.95	312
2086.93	296
2094.91	306
2102.87	320
2110.83	314
2118.77	322
2126.71	304
2134.63	326
2142.55	322
2150.46	326
2158.35	334
2166.24	308
2174.12	328
2181.99	328
2189.85	316
2197.7	328
2205.55	328
2213.38	314
2221.2	316
2229.02	326
2236.82	326
2244.62	304
2252.4	322
2260.18	330
2267.95	338
2275.71	340
2283.46	312
2291.2	324
2298.93	328
2306.65	340
2314.37	358
2322.07	340
2329.77	350
2337.45	320
2345.13	324
2352.8	354
2360.46	330
2368.11	334
2375.75	342
2383.38	322
2391.01	336
2398.62	334
2406.23	344
2413.82	324
2421.41	336
2428.99	334
2436.56	328
2444.12	360
2449.79	348