File: Mixture_Classification/Jesse_Dataset_v2/Pure Raman/Polystyrene/633nm/ps-ppo-7jan25-1,0000-map3_Y09_X04.txt
182.393	998
192.79	946
203.174	936
213.542	1032
223.897	1058
234.238	824
244.566	494
254.878	360
265.178	326
275.463	294
285.734	276
295.992	232
306.236	218
316.467	234
326.684	230
336.887	204
347.075	206
357.251	196
367.413	222
377.562	232
387.697	256
397.819	256
407.926	332
418.02	266
428.101	224
438.169	206
448.223	202
458.264	174
468.291	164
478.306	170
488.307	162
498.294	180
508.269	164
518.23	172
528.177	202
538.113	234
548.034	230
557.942	248
567.838	240
577.72	232
587.589	198
597.446	216
607.289	246
617.119	394
626.936	522
636.741	220
646.533	172
656.313	162
666.078	164
675.831	144
685.571	150
695.299	174
705.014	198
714.716	202
724.406	288
734.082	250
743.746	376
753.398	416
763.037	474
772.664	420
782.278	466
791.879	626
801.467	634
811.044	386
820.608	284
830.16	272
839.699	312
849.226	328
858.741	284
868.243	290
877.731	270
887.209	262
896.674	276
906.128	326
915.569	280
924.997	246
934.414	266
943.818	248
953.211	258
962.59	300
971.958	294
981.314	440
990.659	1164
999.99	4156
1009.31	1542
1018.62	438
1027.91	1164
1037.2	1412
1046.47	468
1055.73	398
1064.98	404
1074.22	436
1083.44	404
1092.65	408
1101.86	416
1111.05	328
1120.22	300
1129.39	258
1138.54	284
1147.69	404
1156.82	966
1165.94	496
1175.05	614
1184.14	1218
1193.23	1112
1202.3	1164
1211.36	688
1220.41	462
1229.45	418
1238.48	342
1247.5	344
1256.5	336
1265.49	316
1274.48	320
1283.45	324
1292.41	372
1301.36	396
1310.29	426
1319.22	434
1328.13	524
1337.04	466
1345.93	374
1354.81	356
1363.68	374
1372.54	350
1381.38	340
1390.22	272
1399.05	252
1407.86	266
1416.66	258
1425.46	250
1434.24	310
1443.01	486
1451.77	598
1460.52	366
1469.25	294
1477.98	260
1486.7	246
1495.4	288
1504.1	250
1512.78	242
1521.45	258
1530.11	256
1538.76	248
1547.41	250
1556.03	282
1564.65	294
1573.26	354
1581.86	782
1590.45	596
1599.02	1194
1607.59	1308
1616.14	462
1624.69	328
1633.22	320
1641.75	302
1650.26	332
1658.76	284
1667.26	278
1675.74	268
1684.21	286
1692.67	264
1701.12	256
1709.56	250
1717.99	270
1726.41	264
1734.82	266
1743.22	258
1751.61	254
1759.99	258
1768.36	258
1776.71	274
1785.06	270
1793.4	268
1801.73	288
1810.04	288
1818.35	282
1826.65	282
1834.94	262
1843.21	260
1851.48	256
1859.74	274
1867.98	268
1876.22	282
1884.45	280
1892.67	278
1900.87	288
1909.07	298
1917.26	286
1925.43	296
1933.6	290
1941.76	284
1949.91	292
1958.05	284
1966.17	302
1974.29	298
1982.4	288
1990.5	296
1998.59	282
2006.67	294
2014.74	306
2022.8	290
2030.85	306
2038.89	296
2046.92	304
2054.94	318
2062.95	310
2070.96	310
2078.95	324
2086.93	298
2094.91	304
2102.87	312
2110.83	320
2118.77	314
2126.71	308
2134.63	308
2142.55	318
2150.46	326
2158.35	314
2166.24	318
2174.12	312
2181.99	310
2189.85	310
2197.7	300
2205.55	336
2213.38	328
2221.2	322
2229.02	308
2236.82	308
2244.62	308
2252.4	320
2260.18	298
2267.95	318
2275.71	318
2283.46	308
2291.2	324
2298.93	318
2306.65	330
2314.37	318
2322.07	334
2329.77	330
2337.45	326
2345.13	338
2352.8	322
2360.46	350
2368.11	334
2375.75	324
2383.38	346
2391.01	328
2398.62	340
2406.23	324
2413.82	340
2421.41	334
2428.99	340
2436.56	344
2444.12	346
2449.79	370