File: Mixture_Classification/Jesse_Dataset_v2/Pure Raman/Polystyrene/633nm/ps-ppo-7jan25-1,0000-map3_Y10_X00.txt
182.393	1044
192.79	970
203.174	932
213.542	1068
223.897	1100
234.238	840
244.566	532
254.878	402
265.178	364
275.463	318
285.734	308
295.992	280
306.236	254
316.467	244
326.684	238
336.887	238
347.075	246
357.251	222
367.413	238
377.562	270
387.697	274
397.819	286
407.926	356
418.02	288
428.101	266
438.169	230
448.223	224
458.264	194
468.291	184
478.306	186
488.307	180
498.294	198
508.269	196
518.23	214
528.177	218
538.113	230
548.034	298
557.942	242
567.838	272
577.72	250
587.589	210
597.446	218
607.289	276
617.119	454
626.936	534
636.741	246
646.533	194
656.313	172
666.078	170
675.831	190
685.571	170
695.299	180
705.014	222
714.716	226
724.406	302
734.082	278
743.746	402
753.398	426
763.037	502
772.664	442
782.278	484
791.879	666
801.467	628
811.044	400
820.608	308
830.16	296
839.699	352
849.226	366
858.741	316
868.243	318
877.731	318
887.209	290
896.674	290
906.128	370
915.569	322
924.997	270
934.414	272
943.818	266
953.211	282
962.59	314
971.958	346
981.314	476
990.659	1204
999.99	4264
1009.31	1564
1018.62	460
1027.91	1214
1037.2	1416
1046.47	466
1055.73	416
1064.98	434
1074.22	462
1083.44	456
1092.65	440
1101.86	444
1111.05	362
1120.22	318
1129.39	288
1138.54	282
1147.69	410
1156.82	934
1165.94	512
1175.05	644
1184.14	1228
1193.23	1132
1202.3	1174
1211.36	766
1220.41	496
1229.45	414
1238.48	406
1247.5	352
1256.5	376
1265.49	372
1274.48	372
1283.45	346
1292.41	380
1301.36	408
1310.29	448
1319.22	502
1328.13	534
1337.04	500
1345.93	394
1354.81	374
1363.68	384
1372.54	382
1381.38	376
1390.22	278
1399.05	282
1407.86	286
1416.66	282
1425.46	288
1434.24	322
1443.01	510
1451.77	616
1460.52	382
1469.25	274
1477.98	270
1486.7	270
1495.4	312
1504.1	286
1512.78	254
1521.45	258
1530.11	278
1538.76	268
1547.41	298
1556.03	292
1564.65	310
1573.26	402
1581.86	802
1590.45	576
1599.02	1260
1607.59	1264
1616.14	486
1624.69	354
1633.22	332
1641.75	344
1650.26	340
1658.76	318
1667.26	300
1675.74	296
1684.21	300
1692.67	300
1701.12	292
1709.56	276
1717.99	280
1726.41	278
1734.82	268
1743.22	280
1751.61	290
1759.99	278
1768.36	276
1776.71	288
1785.06	296
1793.4	276
1801.73	288
1810.04	282
1818.35	314
1826.65	296
1834.94	298
1843.21	280
1851.48	296
1859.74	292
1867.98	304
1876.22	294
1884.45	288
1892.67	274
1900.87	274
1909.07	302
1917.26	302
1925.43	320
1933.6	312
1941.76	306
1949.91	302
1958.05	312
1966.17	314
1974.29	312
1982.4	306
1990.5	324
1998.59	316
2006.67	326
2014.74	308
2022.8	316
2030.85	314
2038.89	336
2046.92	302
2054.94	324
2062.95	320
2070.96	312
2078.95	310
2086.93	308
2094.91	314
2102.87	338
2110.83	330
2118.77	332
2126.71	312
2134.63	334
2142.55	320
2150.46	344
2158.35	336
2166.24	318
2174.12	318
2181.99	322
2189.85	322
2197.7	332
2205.55	324
2213.38	354
2221.2	316
2229.02	340
2236.82	308
2244.62	358
2252.4	328
2260.18	314
2267.95	352
2275.71	340
2283.46	352
2291.2	324
2298.93	324
2306.65	348
2314.37	354
2322.07	350
2329.77	336
2337.45	348
2345.13	350
2352.8	346
2360.46	352
2368.11	330
2375.75	356
2383.38	326
2391.01	348
2398.62	368
2406.23	358
2413.82	344
2421.41	354
2428.99	340
2436.56	374
2444.12	348
2449.79	352