File: Mixture_Classification/Jesse_Dataset_v2/Pure Raman/Polystyrene/633nm/ps-ppo-7jan25-1,0000-map3_Y01_X01.txt
182.393	1036
192.79	950
203.174	922
213.542	1034
223.897	1092
234.238	848
244.566	526
254.878	392
265.178	348
275.463	336
285.734	302
295.992	260
306.236	226
316.467	256
326.684	238
336.887	228
347.075	234
357.251	234
367.413	232
377.562	250
387.697	268
397.819	278
407.926	362
418.02	310
428.101	248
438.169	226
448.223	228
458.264	188
468.291	190
478.306	198
488.307	186
498.294	198
508.269	194
518.23	214
528.177	206
538.113	272
548.034	268
557.942	262
567.838	254
577.72	252
587.589	228
597.446	214
607.289	268
617.119	436
626.936	552
636.741	210
646.533	180
656.313	188
666.078	162
675.831	178
685.571	176
695.299	190
705.014	218
714.716	222
724.406	296
734.082	284
743.746	378
753.398	434
763.037	492
772.664	438
782.278	456
791.879	668
801.467	648
811.044	390
820.608	302
830.16	272
839.699	362
849.226	392
858.741	302
868.243	322
877.731	316
887.209	292
896.674	302
906.128	388
915.569	318
924.997	288
934.414	264
943.818	276
953.211	296
962.59	330
971.958	352
981.314	472
990.659	1172
999.99	4144
1009.31	1586
1018.62	478
1027.91	1210
1037.2	1458
1046.47	490
1055.73	418
1064.98	406
1074.22	454
1083.44	450
1092.65	448
1101.86	450
1111.05	386
1120.22	316
1129.39	286
1138.54	308
1147.69	420
1156.82	982
1165.94	548
1175.05	672
1184.14	1242
1193.23	1136
1202.3	1154
1211.36	748
1220.41	504
1229.45	444
1238.48	384
1247.5	402
1256.5	366
1265.49	360
1274.48	362
1283.45	378
1292.41	420
1301.36	416
1310.29	448
1319.22	474
1328.13	544
1337.04	508
1345.93	410
1354.81	404
1363.68	374
1372.54	376
1381.38	372
1390.22	298
1399.05	264
1407.86	278
1416.66	274
1425.46	284
1434.24	352
1443.01	510
1451.77	624
1460.52	422
1469.25	302
1477.98	274
1486.7	310
1495.4	334
1504.1	292
1512.78	288
1521.45	288
1530.11	268
1538.76	292
1547.41	280
1556.03	298
1564.65	330
1573.26	378
1581.86	818
1590.45	610
1599.02	1238
1607.59	1286
1616.14	482
1624.69	386
1633.22	326
1641.75	336
1650.26	376
1658.76	286
1667.26	288
1675.74	298
1684.21	304
1692.67	290
1701.12	300
1709.56	318
1717.99	300
1726.41	280
1734.82	296
1743.22	280
1751.61	294
1759.99	272
1768.36	288
1776.71	300
1785.06	314
1793.4	284
1801.73	300
1810.04	304
1818.35	322
1826.65	296
1834.94	314
1843.21	300
1851.48	300
1859.74	320
1867.98	304
1876.22	310
1884.45	316
1892.67	306
1900.87	316
1909.07	326
1917.26	322
1925.43	314
1933.6	316
1941.76	324
1949.91	320
1958.05	342
1966.17	326
1974.29	318
1982.4	320
1990.5	312
1998.59	312
2006.67	326
2014.74	316
2022.8	326
2030.85	320
2038.89	324
2046.92	334
2054.94	326
2062.95	346
2070.96	338
2078.95	326
2086.93	334
2094.91	324
2102.87	338
2110.83	334
2118.77	330
2126.71	336
2134.63	350
2142.55	342
2150.46	342
2158.35	356
2166.24	330
2174.12	342
2181.99	346
2189.85	348
2197.7	354
2205.55	362
2213.38	336
2221.2	348
2229.02	356
2236.82	344
2244.62	358
2252.4	332
2260.18	356
2267.95	372
2275.71	348
2283.46	336
2291.2	332
2298.93	352
2306.65	348
2314.37	352
2322.07	344
2329.77	350
2337.45	370
2345.13	340
2352.8	350
2360.46	346
2368.11	380
2375.75	364
2383.38	368
2391.01	358
2398.62	354
2406.23	372
2413.82	374
2421.41	364
2428.99	350
2436.56	378
2444.12	366
2449.79	364