File: Mixture_Classification/Jesse_Dataset_v2/Pure Raman/Polystyrene/633nm/ps-ppo-7jan25-1,0000-map3_Y06_X06.txt
182.393	1030
192.79	970
203.174	980
213.542	1044
223.897	1084
234.238	868
244.566	538
254.878	408
265.178	384
275.463	330
285.734	296
295.992	264
306.236	266
316.467	258
326.684	274
336.887	266
347.075	232
357.251	240
367.413	220
377.562	252
387.697	278
397.819	326
407.926	352
418.02	312
428.101	246
438.169	254
448.223	230
458.264	204
468.291	206
478.306	206
488.307	200
498.294	192
508.269	212
518.23	220
528.177	222
538.113	278
548.034	276
557.942	286
567.838	264
577.72	262
587.589	220
597.446	234
607.289	276
617.119	426
626.936	564
636.741	224
646.533	204
656.313	192
666.078	170
675.831	188
685.571	190
695.299	192
705.014	224
714.716	226
724.406	316
734.082	278
743.746	384
753.398	434
763.037	510
772.664	446
782.278	474
791.879	660
801.467	648
811.044	388
820.608	342
830.16	288
839.699	362
849.226	344
858.741	310
868.243	330
877.731	310
887.209	290
896.674	332
906.128	378
915.569	316
924.997	292
934.414	266
943.818	276
953.211	282
962.59	298
971.958	368
981.314	492
990.659	1210
999.99	4168
1009.31	1592
1018.62	494
1027.91	1178
1037.2	1414
1046.47	490
1055.73	414
1064.98	420
1074.22	436
1083.44	422
1092.65	430
1101.86	434
1111.05	358
1120.22	310
1129.39	252
1138.54	308
1147.69	430
1156.82	988
1165.94	542
1175.05	632
1184.14	1180
1193.23	1122
1202.3	1168
1211.36	758
1220.41	494
1229.45	436
1238.48	378
1247.5	376
1256.5	372
1265.49	352
1274.48	350
1283.45	362
1292.41	400
1301.36	414
1310.29	406
1319.22	466
1328.13	558
1337.04	508
1345.93	406
1354.81	390
1363.68	376
1372.54	404
1381.38	356
1390.22	278
1399.05	286
1407.86	292
1416.66	266
1425.46	280
1434.24	312
1443.01	476
1451.77	592
1460.52	388
1469.25	292
1477.98	292
1486.7	294
1495.4	290
1504.1	284
1512.78	276
1521.45	290
1530.11	302
1538.76	278
1547.41	258
1556.03	294
1564.65	310
1573.26	394
1581.86	794
1590.45	594
1599.02	1220
1607.59	1282
1616.14	490
1624.69	394
1633.22	336
1641.75	354
1650.26	334
1658.76	316
1667.26	306
1675.74	290
1684.21	304
1692.67	294
1701.12	292
1709.56	282
1717.99	296
1726.41	296
1734.82	272
1743.22	284
1751.61	284
1759.99	270
1768.36	274
1776.71	294
1785.06	284
1793.4	304
1801.73	282
1810.04	304
1818.35	316
1826.65	300
1834.94	318
1843.21	302
1851.48	280
1859.74	292
1867.98	294
1876.22	292
1884.45	312
1892.67	304
1900.87	296
1909.07	322
1917.26	328
1925.43	306
1933.6	324
1941.76	330
1949.91	324
1958.05	324
1966.17	312
1974.29	284
1982.4	320
1990.5	308
1998.59	322
2006.67	308
2014.74	308
2022.8	306
2030.85	308
2038.89	326
2046.92	336
2054.94	322
2062.95	336
2070.96	332
2078.95	328
2086.93	306
2094.91	302
2102.87	320
2110.83	310
2118.77	320
2126.71	340
2134.63	330
2142.55	342
2150.46	326
2158.35	328
2166.24	312
2174.12	320
2181.99	324
2189.85	324
2197.7	340
2205.55	350
2213.38	330
2221.2	338
2229.02	334
2236.82	350
2244.62	336
2252.4	332
2260.18	336
2267.95	356
2275.71	344
2283.46	342
2291.2	342
2298.93	350
2306.65	342
2314.37	334
2322.07	348
2329.77	338
2337.45	344
2345.13	350
2352.8	352
2360.46	350
2368.11	356
2375.75	364
2383.38	358
2391.01	356
2398.62	354
2406.23	358
2413.82	364
2421.41	358
2428.99	354
2436.56	382
2444.12	364
2449.79	366