File: Mixture_Classification/Jesse_Dataset_v2/Pure Raman/Polystyrene/633nm/ps-ppo-7jan25-1,0000-map3_Y01_X04.txt
182.393	1028
192.79	956
203.174	964
213.542	1072
223.897	1082
234.238	814
244.566	520
254.878	402
265.178	340
275.463	338
285.734	286
295.992	260
306.236	228
316.467	256
326.684	250
336.887	250
347.075	238
357.251	232
367.413	230
377.562	242
387.697	264
397.819	304
407.926	340
418.02	304
428.101	248
438.169	216
448.223	226
458.264	202
468.291	190
478.306	186
488.307	196
498.294	190
508.269	202
518.23	210
528.177	200
538.113	266
548.034	272
557.942	256
567.838	270
577.72	278
587.589	216
597.446	216
607.289	270
617.119	428
626.936	540
636.741	244
646.533	182
656.313	174
666.078	172
675.831	162
685.571	176
695.299	178
705.014	224
714.716	202
724.406	300
734.082	266
743.746	392
753.398	428
763.037	462
772.664	430
782.278	458
791.879	644
801.467	588
811.044	386
820.608	296
830.16	262
839.699	336
849.226	344
858.741	290
868.243	312
877.731	298
887.209	276
896.674	268
906.128	366
915.569	318
924.997	258
934.414	266
943.818	264
953.211	258
962.59	302
971.958	336
981.314	418
990.659	1174
999.99	4132
1009.31	1608
1018.62	480
1027.91	1178
1037.2	1454
1046.47	466
1055.73	412
1064.98	442
1074.22	442
1083.44	410
1092.65	406
1101.86	432
1111.05	348
1120.22	304
1129.39	288
1138.54	304
1147.69	416
1156.82	974
1165.94	520
1175.05	614
1184.14	1176
1193.23	1138
1202.3	1146
1211.36	690
1220.41	494
1229.45	430
1238.48	392
1247.5	370
1256.5	354
1265.49	364
1274.48	334
1283.45	354
1292.41	374
1301.36	428
1310.29	404
1319.22	466
1328.13	530
1337.04	492
1345.93	400
1354.81	380
1363.68	364
1372.54	370
1381.38	352
1390.22	290
1399.05	274
1407.86	248
1416.66	266
1425.46	280
1434.24	338
1443.01	480
1451.77	574
1460.52	388
1469.25	300
1477.98	290
1486.7	278
1495.4	302
1504.1	270
1512.78	278
1521.45	278
1530.11	250
1538.76	264
1547.41	268
1556.03	298
1564.65	306
1573.26	360
1581.86	802
1590.45	608
1599.02	1230
1607.59	1306
1616.14	478
1624.69	368
1633.22	324
1641.75	314
1650.26	350
1658.76	300
1667.26	306
1675.74	278
1684.21	302
1692.67	292
1701.12	282
1709.56	298
1717.99	268
1726.41	288
1734.82	268
1743.22	282
1751.61	286
1759.99	292
1768.36	286
1776.71	304
1785.06	280
1793.4	292
1801.73	304
1810.04	276
1818.35	292
1826.65	304
1834.94	280
1843.21	280
1851.48	298
1859.74	284
1867.98	294
1876.22	300
1884.45	290
1892.67	290
1900.87	290
1909.07	300
1917.26	294
1925.43	318
1933.6	312
1941.76	324
1949.91	312
1958.05	290
1966.17	298
1974.29	310
1982.4	326
1990.5	298
1998.59	308
2006.67	298
2014.74	326
2022.8	308
2030.85	314
2038.89	320
2046.92	316
2054.94	322
2062.95	314
2070.96	332
2078.95	310
2086.93	316
2094.91	326
2102.87	318
2110.83	320
2118.77	312
2126.71	322
2134.63	310
2142.55	330
2150.46	310
2158.35	326
2166.24	326
2174.12	326
2181.99	316
2189.85	326
2197.7	320
2205.55	344
2213.38	338
2221.2	330
2229.02	342
2236.82	338
2244.62	332
2252.4	340
2260.18	334
2267.95	312
2275.71	342
2283.46	346
2291.2	336
2298.93	326
2306.65	352
2314.37	362
2322.07	320
2329.77	336
2337.45	354
2345.13	362
2352.8	356
2360.46	340
2368.11	346
2375.75	342
2383.38	358
2391.01	348
2398.62	346
2406.23	336
2413.82	348
2421.41	346
2428.99	346
2436.56	340
2444.12	366
2449.79	346