File: Mixture_Classification/Jesse_Dataset_v2/Pure Raman/Polystyrene/633nm/ps-ppo-7jan25-1,0000-map3_Y04_X05.txt
182.393	1002
192.79	940
203.174	920
213.542	1054
223.897	1032
234.238	832
244.566	512
254.878	366
265.178	334
275.463	322
285.734	282
295.992	244
306.236	230
316.467	228
326.684	240
336.887	228
347.075	224
357.251	196
367.413	218
377.562	240
387.697	250
397.819	300
407.926	346
418.02	260
428.101	220
438.169	220
448.223	200
458.264	178
468.291	178
478.306	172
488.307	160
498.294	172
508.269	172
518.23	190
528.177	204
538.113	242
548.034	242
557.942	236
567.838	246
577.72	228
587.589	210
597.446	222
607.289	262
617.119	416
626.936	538
636.741	216
646.533	174
656.313	168
666.078	166
675.831	160
685.571	168
695.299	182
705.014	220
714.716	216
724.406	288
734.082	284
743.746	388
753.398	438
763.037	464
772.664	414
782.278	458
791.879	628
801.467	634
811.044	400
820.608	300
830.16	260
839.699	334
849.226	332
858.741	306
868.243	294
877.731	284
887.209	276
896.674	290
906.128	338
915.569	294
924.997	252
934.414	248
943.818	254
953.211	266
962.59	300
971.958	330
981.314	458
990.659	1172
999.99	4326
1009.31	1554
1018.62	456
1027.91	1190
1037.2	1392
1046.47	464
1055.73	388
1064.98	410
1074.22	442
1083.44	414
1092.65	404
1101.86	408
1111.05	344
1120.22	282
1129.39	260
1138.54	312
1147.69	408
1156.82	984
1165.94	484
1175.05	590
1184.14	1156
1193.23	1124
1202.3	1102
1211.36	702
1220.41	486
1229.45	420
1238.48	356
1247.5	334
1256.5	332
1265.49	344
1274.48	330
1283.45	330
1292.41	358
1301.36	412
1310.29	390
1319.22	450
1328.13	520
1337.04	472
1345.93	366
1354.81	376
1363.68	352
1372.54	364
1381.38	324
1390.22	264
1399.05	250
1407.86	260
1416.66	254
1425.46	258
1434.24	286
1443.01	468
1451.77	582
1460.52	340
1469.25	272
1477.98	252
1486.7	250
1495.4	262
1504.1	254
1512.78	248
1521.45	258
1530.11	244
1538.76	250
1547.41	272
1556.03	284
1564.65	300
1573.26	354
1581.86	736
1590.45	568
1599.02	1206
1607.59	1274
1616.14	460
1624.69	330
1633.22	310
1641.75	314
1650.26	310
1658.76	288
1667.26	262
1675.74	264
1684.21	276
1692.67	264
1701.12	264
1709.56	268
1717.99	258
1726.41	278
1734.82	264
1743.22	262
1751.61	264
1759.99	276
1768.36	260
1776.71	266
1785.06	276
1793.4	264
1801.73	268
1810.04	278
1818.35	268
1826.65	276
1834.94	274
1843.21	284
1851.48	244
1859.74	282
1867.98	270
1876.22	284
1884.45	276
1892.67	274
1900.87	298
1909.07	290
1917.26	302
1925.43	294
1933.6	290
1941.76	286
1949.91	290
1958.05	288
1966.17	310
1974.29	264
1982.4	298
1990.5	302
1998.59	282
2006.67	306
2014.74	298
2022.8	308
2030.85	298
2038.89	298
2046.92	302
2054.94	300
2062.95	310
2070.96	316
2078.95	312
2086.93	308
2094.91	318
2102.87	288
2110.83	298
2118.77	322
2126.71	306
2134.63	316
2142.55	308
2150.46	330
2158.35	310
2166.24	318
2174.12	328
2181.99	314
2189.85	318
2197.7	310
2205.55	326
2213.38	322
2221.2	324
2229.02	332
2236.82	328
2244.62	324
2252.4	330
2260.18	330
2267.95	334
2275.71	334
2283.46	322
2291.2	326
2298.93	344
2306.65	342
2314.37	336
2322.07	350
2329.77	312
2337.45	324
2345.13	330
2352.8	340
2360.46	350
2368.11	328
2375.75	346
2383.38	352
2391.01	336
2398.62	330
2406.23	344
2413.82	356
2421.41	336
2428.99	340
2436.56	354
2444.12	340
2449.79	364