File: Mixture_Classification/Jesse_Dataset_v2/Pure Raman/Polystyrene/633nm/ps-ppo-7jan25-1,0000-map3_Y08_X06.txt
182.393	1044
192.79	952
203.174	966
213.542	1044
223.897	1080
234.238	830
244.566	542
254.878	382
265.178	340
275.463	308
285.734	300
295.992	266
306.236	236
316.467	242
326.684	234
336.887	228
347.075	224
357.251	222
367.413	228
377.562	252
387.697	256
397.819	270
407.926	378
418.02	284
428.101	260
438.169	218
448.223	218
458.264	194
468.291	186
478.306	174
488.307	192
498.294	190
508.269	214
518.23	202
528.177	228
538.113	244
548.034	252
557.942	260
567.838	248
577.72	254
587.589	198
597.446	204
607.289	268
617.119	436
626.936	526
636.741	232
646.533	190
656.313	180
666.078	186
675.831	184
685.571	186
695.299	178
705.014	204
714.716	244
724.406	300
734.082	286
743.746	388
753.398	416
763.037	482
772.664	434
782.278	466
791.879	660
801.467	604
811.044	396
820.608	314
830.16	284
839.699	374
849.226	340
858.741	320
868.243	308
877.731	314
887.209	300
896.674	306
906.128	388
915.569	306
924.997	270
934.414	280
943.818	276
953.211	274
962.59	326
971.958	330
981.314	486
990.659	1174
999.99	4320
1009.31	1528
1018.62	496
1027.91	1178
1037.2	1462
1046.47	508
1055.73	412
1064.98	432
1074.22	446
1083.44	440
1092.65	436
1101.86	426
1111.05	380
1120.22	294
1129.39	280
1138.54	300
1147.69	412
1156.82	992
1165.94	508
1175.05	622
1184.14	1228
1193.23	1160
1202.3	1146
1211.36	768
1220.41	500
1229.45	430
1238.48	386
1247.5	360
1256.5	360
1265.49	354
1274.48	356
1283.45	348
1292.41	374
1301.36	410
1310.29	432
1319.22	504
1328.13	554
1337.04	488
1345.93	388
1354.81	374
1363.68	356
1372.54	390
1381.38	340
1390.22	288
1399.05	280
1407.86	290
1416.66	250
1425.46	276
1434.24	320
1443.01	500
1451.77	620
1460.52	382
1469.25	284
1477.98	278
1486.7	272
1495.4	306
1504.1	284
1512.78	254
1521.45	264
1530.11	266
1538.76	270
1547.41	288
1556.03	278
1564.65	318
1573.26	384
1581.86	826
1590.45	576
1599.02	1268
1607.59	1264
1616.14	490
1624.69	350
1633.22	316
1641.75	328
1650.26	356
1658.76	298
1667.26	298
1675.74	280
1684.21	278
1692.67	292
1701.12	254
1709.56	284
1717.99	268
1726.41	274
1734.82	286
1743.22	274
1751.61	274
1759.99	274
1768.36	274
1776.71	290
1785.06	280
1793.4	276
1801.73	268
1810.04	292
1818.35	288
1826.65	280
1834.94	306
1843.21	298
1851.48	308
1859.74	290
1867.98	284
1876.22	276
1884.45	294
1892.67	310
1900.87	288
1909.07	296
1917.26	306
1925.43	288
1933.6	290
1941.76	284
1949.91	298
1958.05	294
1966.17	300
1974.29	318
1982.4	310
1990.5	308
1998.59	308
2006.67	300
2014.74	314
2022.8	328
2030.85	314
2038.89	316
2046.92	328
2054.94	310
2062.95	324
2070.96	306
2078.95	292
2086.93	318
2094.91	304
2102.87	308
2110.83	340
2118.77	326
2126.71	322
2134.63	340
2142.55	332
2150.46	354
2158.35	312
2166.24	338
2174.12	348
2181.99	322
2189.85	320
2197.7	336
2205.55	348
2213.38	320
2221.2	324
2229.02	362
2236.82	338
2244.62	330
2252.4	342
2260.18	342
2267.95	332
2275.71	332
2283.46	322
2291.2	334
2298.93	342
2306.65	334
2314.37	356
2322.07	334
2329.77	340
2337.45	340
2345.13	350
2352.8	338
2360.46	334
2368.11	344
2375.75	354
2383.38	354
2391.01	342
2398.62	326
2406.23	344
2413.82	338
2421.41	358
2428.99	342
2436.56	368
2444.12	366
2449.79	358