File: Mixture_Classification/Jesse_Dataset_v2/Pure Raman/Polystyrene/633nm/ps-ppo-7jan25-1,0000-map3_Y10_X09.txt
182.393	1046
192.79	956
203.174	972
213.542	1010
223.897	1078
234.238	840
244.566	536
254.878	384
265.178	378
275.463	342
285.734	296
295.992	264
306.236	248
316.467	258
326.684	252
336.887	254
347.075	264
357.251	232
367.413	254
377.562	270
387.697	294
397.819	316
407.926	382
418.02	300
428.101	274
438.169	258
448.223	242
458.264	230
468.291	202
478.306	198
488.307	204
498.294	218
508.269	232
518.23	226
528.177	230
538.113	288
548.034	288
557.942	300
567.838	278
577.72	282
587.589	266
597.446	246
607.289	302
617.119	464
626.936	570
636.741	242
646.533	204
656.313	190
666.078	200
675.831	198
685.571	210
695.299	224
705.014	252
714.716	262
724.406	324
734.082	304
743.746	430
753.398	470
763.037	524
772.664	448
782.278	494
791.879	674
801.467	636
811.044	440
820.608	334
830.16	282
839.699	362
849.226	368
858.741	322
868.243	328
877.731	338
887.209	316
896.674	308
906.128	360
915.569	310
924.997	288
934.414	278
943.818	286
953.211	290
962.59	314
971.958	348
981.314	490
990.659	1188
999.99	4316
1009.31	1512
1018.62	476
1027.91	1220
1037.2	1418
1046.47	468
1055.73	418
1064.98	438
1074.22	460
1083.44	446
1092.65	434
1101.86	454
1111.05	354
1120.22	316
1129.39	290
1138.54	300
1147.69	426
1156.82	1002
1165.94	494
1175.05	648
1184.14	1226
1193.23	1140
1202.3	1194
1211.36	752
1220.41	506
1229.45	438
1238.48	404
1247.5	384
1256.5	332
1265.49	366
1274.48	366
1283.45	358
1292.41	402
1301.36	422
1310.29	428
1319.22	490
1328.13	520
1337.04	516
1345.93	434
1354.81	386
1363.68	396
1372.54	392
1381.38	370
1390.22	296
1399.05	294
1407.86	278
1416.66	304
1425.46	294
1434.24	324
1443.01	502
1451.77	634
1460.52	390
1469.25	310
1477.98	282
1486.7	286
1495.4	324
1504.1	270
1512.78	292
1521.45	288
1530.11	282
1538.76	304
1547.41	310
1556.03	312
1564.65	340
1573.26	386
1581.86	824
1590.45	616
1599.02	1260
1607.59	1296
1616.14	482
1624.69	364
1633.22	296
1641.75	362
1650.26	382
1658.76	334
1667.26	314
1675.74	314
1684.21	314
1692.67	330
1701.12	306
1709.56	318
1717.99	308
1726.41	302
1734.82	290
1743.22	302
1751.61	300
1759.99	304
1768.36	296
1776.71	318
1785.06	318
1793.4	298
1801.73	330
1810.04	326
1818.35	310
1826.65	334
1834.94	336
1843.21	320
1851.48	330
1859.74	340
1867.98	334
1876.22	332
1884.45	352
1892.67	316
1900.87	342
1909.07	318
1917.26	334
1925.43	350
1933.6	350
1941.76	348
1949.91	364
1958.05	342
1966.17	360
1974.29	344
1982.4	322
1990.5	344
1998.59	344
2006.67	344
2014.74	342
2022.8	334
2030.85	362
2038.89	368
2046.92	362
2054.94	372
2062.95	374
2070.96	358
2078.95	350
2086.93	360
2094.91	364
2102.87	362
2110.83	356
2118.77	356
2126.71	374
2134.63	366
2142.55	386
2150.46	364
2158.35	366
2166.24	376
2174.12	402
2181.99	358
2189.85	366
2197.7	374
2205.55	356
2213.38	392
2221.2	382
2229.02	364
2236.82	380
2244.62	366
2252.4	386
2260.18	368
2267.95	378
2275.71	380
2283.46	350
2291.2	370
2298.93	352
2306.65	394
2314.37	378
2322.07	368
2329.77	368
2337.45	370
2345.13	374
2352.8	390
2360.46	352
2368.11	366
2375.75	396
2383.38	382
2391.01	386
2398.62	376
2406.23	392
2413.82	376
2421.41	354
2428.99	354
2436.56	380
2444.12	380
2449.79	394