File: Mixture_Classification/Jesse_Dataset_v2/Pure Raman/Polystyrene/633nm/ps-ppo-7jan25-1,0000-map3_Y06_X04.txt
182.393	1012
192.79	914
203.174	948
213.542	1024
223.897	1080
234.238	822
244.566	502
254.878	380
265.178	330
275.463	304
285.734	264
295.992	242
306.236	224
316.467	224
326.684	226
336.887	222
347.075	222
357.251	194
367.413	206
377.562	226
387.697	260
397.819	264
407.926	338
418.02	286
428.101	242
438.169	220
448.223	192
458.264	186
468.291	162
478.306	162
488.307	164
498.294	170
508.269	180
518.23	190
528.177	208
538.113	236
548.034	236
557.942	240
567.838	230
577.72	222
587.589	208
597.446	190
607.289	246
617.119	396
626.936	504
636.741	220
646.533	166
656.313	152
666.078	160
675.831	154
685.571	148
695.299	162
705.014	224
714.716	186
724.406	278
734.082	266
743.746	358
753.398	406
763.037	456
772.664	386
782.278	424
791.879	638
801.467	622
811.044	390
820.608	284
830.16	238
839.699	320
849.226	328
858.741	282
868.243	284
877.731	250
887.209	260
896.674	262
906.128	330
915.569	280
924.997	248
934.414	230
943.818	236
953.211	234
962.59	282
971.958	308
981.314	436
990.659	1140
999.99	4236
1009.31	1554
1018.62	444
1027.91	1170
1037.2	1402
1046.47	462
1055.73	366
1064.98	396
1074.22	424
1083.44	394
1092.65	400
1101.86	394
1111.05	336
1120.22	276
1129.39	242
1138.54	278
1147.69	398
1156.82	928
1165.94	490
1175.05	616
1184.14	1216
1193.23	1068
1202.3	1144
1211.36	698
1220.41	472
1229.45	406
1238.48	352
1247.5	338
1256.5	328
1265.49	342
1274.48	324
1283.45	344
1292.41	366
1301.36	394
1310.29	390
1319.22	454
1328.13	494
1337.04	476
1345.93	374
1354.81	360
1363.68	362
1372.54	354
1381.38	318
1390.22	246
1399.05	256
1407.86	256
1416.66	234
1425.46	260
1434.24	296
1443.01	490
1451.77	574
1460.52	354
1469.25	280
1477.98	242
1486.7	256
1495.4	284
1504.1	262
1512.78	250
1521.45	250
1530.11	234
1538.76	236
1547.41	252
1556.03	274
1564.65	308
1573.26	352
1581.86	794
1590.45	570
1599.02	1202
1607.59	1276
1616.14	442
1624.69	352
1633.22	308
1641.75	310
1650.26	316
1658.76	280
1667.26	270
1675.74	292
1684.21	288
1692.67	280
1701.12	280
1709.56	276
1717.99	248
1726.41	244
1734.82	256
1743.22	270
1751.61	268
1759.99	274
1768.36	266
1776.71	274
1785.06	270
1793.4	286
1801.73	256
1810.04	280
1818.35	264
1826.65	280
1834.94	282
1843.21	276
1851.48	270
1859.74	274
1867.98	278
1876.22	296
1884.45	270
1892.67	282
1900.87	284
1909.07	298
1917.26	288
1925.43	302
1933.6	300
1941.76	282
1949.91	300
1958.05	298
1966.17	282
1974.29	296
1982.4	290
1990.5	296
1998.59	294
2006.67	302
2014.74	302
2022.8	280
2030.85	300
2038.89	292
2046.92	298
2054.94	326
2062.95	278
2070.96	306
2078.95	316
2086.93	306
2094.91	286
2102.87	302
2110.83	322
2118.77	326
2126.71	320
2134.63	312
2142.55	344
2150.46	316
2158.35	308
2166.24	312
2174.12	318
2181.99	322
2189.85	318
2197.7	324
2205.55	308
2213.38	320
2221.2	308
2229.02	336
2236.82	324
2244.62	332
2252.4	316
2260.18	336
2267.95	314
2275.71	330
2283.46	324
2291.2	320
2298.93	340
2306.65	342
2314.37	342
2322.07	308
2329.77	328
2337.45	342
2345.13	326
2352.8	342
2360.46	338
2368.11	346
2375.75	332
2383.38	332
2391.01	346
2398.62	338
2406.23	312
2413.82	328
2421.41	344
2428.99	348
2436.56	348
2444.12	346
2449.79	366