File: Mixture_Classification/Jesse_Dataset_v2/Pure Raman/Polystyrene/633nm/ps-ppo-7jan25-1,0000-map3_Y00_X05.txt
182.393	1090
192.79	1022
203.174	1036
213.542	1104
223.897	1114
234.238	900
244.566	606
254.878	456
265.178	424
275.463	386
285.734	388
295.992	330
306.236	316
316.467	318
326.684	342
336.887	318
347.075	290
357.251	298
367.413	314
377.562	330
387.697	334
397.819	382
407.926	416
418.02	384
428.101	316
438.169	306
448.223	278
458.264	256
468.291	260
478.306	260
488.307	250
498.294	264
508.269	300
518.23	270
528.177	300
538.113	322
548.034	316
557.942	316
567.838	308
577.72	320
587.589	264
597.446	274
607.289	346
617.119	478
626.936	634
636.741	290
646.533	246
656.313	232
666.078	258
675.831	238
685.571	256
695.299	254
705.014	286
714.716	286
724.406	370
734.082	322
743.746	428
753.398	464
763.037	554
772.664	484
782.278	538
791.879	708
801.467	680
811.044	444
820.608	362
830.16	332
839.699	388
849.226	402
858.741	334
868.243	352
877.731	352
887.209	308
896.674	334
906.128	436
915.569	344
924.997	306
934.414	320
943.818	336
953.211	316
962.59	354
971.958	402
981.314	514
990.659	1232
999.99	4148
1009.31	1622
1018.62	524
1027.91	1212
1037.2	1442
1046.47	542
1055.73	424
1064.98	450
1074.22	490
1083.44	482
1092.65	476
1101.86	484
1111.05	386
1120.22	358
1129.39	324
1138.54	340
1147.69	444
1156.82	1004
1165.94	570
1175.05	684
1184.14	1222
1193.23	1150
1202.3	1202
1211.36	804
1220.41	546
1229.45	464
1238.48	412
1247.5	398
1256.5	406
1265.49	398
1274.48	394
1283.45	390
1292.41	426
1301.36	460
1310.29	464
1319.22	504
1328.13	568
1337.04	542
1345.93	444
1354.81	432
1363.68	440
1372.54	426
1381.38	410
1390.22	332
1399.05	326
1407.86	312
1416.66	286
1425.46	318
1434.24	376
1443.01	516
1451.77	654
1460.52	452
1469.25	318
1477.98	324
1486.7	322
1495.4	354
1504.1	300
1512.78	304
1521.45	282
1530.11	312
1538.76	310
1547.41	302
1556.03	342
1564.65	352
1573.26	392
1581.86	834
1590.45	632
1599.02	1274
1607.59	1352
1616.14	522
1624.69	392
1633.22	388
1641.75	366
1650.26	378
1658.76	346
1667.26	324
1675.74	336
1684.21	332
1692.67	332
1701.12	334
1709.56	352
1717.99	338
1726.41	312
1734.82	342
1743.22	340
1751.61	316
1759.99	306
1768.36	332
1776.71	318
1785.06	318
1793.4	332
1801.73	352
1810.04	326
1818.35	318
1826.65	324
1834.94	338
1843.21	330
1851.48	340
1859.74	340
1867.98	334
1876.22	326
1884.45	346
1892.67	348
1900.87	324
1909.07	368
1917.26	360
1925.43	346
1933.6	342
1941.76	310
1949.91	350
1958.05	340
1966.17	358
1974.29	346
1982.4	342
1990.5	374
1998.59	332
2006.67	332
2014.74	344
2022.8	336
2030.85	334
2038.89	374
2046.92	358
2054.94	332
2062.95	350
2070.96	364
2078.95	360
2086.93	364
2094.91	356
2102.87	368
2110.83	352
2118.77	366
2126.71	336
2134.63	364
2142.55	350
2150.46	368
2158.35	358
2166.24	370
2174.12	346
2181.99	346
2189.85	342
2197.7	350
2205.55	364
2213.38	376
2221.2	372
2229.02	370
2236.82	370
2244.62	392
2252.4	352
2260.18	370
2267.95	366
2275.71	366
2283.46	344
2291.2	376
2298.93	352
2306.65	364
2314.37	344
2322.07	380
2329.77	372
2337.45	368
2345.13	384
2352.8	360
2360.46	386
2368.11	370
2375.75	364
2383.38	364
2391.01	350
2398.62	366
2406.23	370
2413.82	374
2421.41	360
2428.99	396
2436.56	352
2444.12	384
2449.79	390