File: Mixture_Classification/Jesse_Dataset_v2/Pure Raman/Polystyrene/633nm/ps-ppo-7jan25-1,0000-map3_Y02_X02.txt
182.393	1034
192.79	926
203.174	900
213.542	1018
223.897	1040
234.238	830
244.566	500
254.878	364
265.178	302
275.463	292
285.734	260
295.992	244
306.236	210
316.467	224
326.684	220
336.887	216
347.075	200
357.251	194
367.413	204
377.562	214
387.697	260
397.819	256
407.926	330
418.02	264
428.101	236
438.169	202
448.223	184
458.264	164
468.291	168
478.306	168
488.307	160
498.294	164
508.269	198
518.23	176
528.177	196
538.113	252
548.034	236
557.942	232
567.838	234
577.72	244
587.589	198
597.446	184
607.289	224
617.119	420
626.936	516
636.741	196
646.533	164
656.313	144
666.078	140
675.831	150
685.571	142
695.299	150
705.014	188
714.716	184
724.406	266
734.082	254
743.746	358
753.398	392
763.037	466
772.664	390
782.278	440
791.879	648
801.467	594
811.044	386
820.608	284
830.16	242
839.699	304
849.226	340
858.741	260
868.243	262
877.731	282
887.209	262
896.674	276
906.128	334
915.569	254
924.997	242
934.414	226
943.818	238
953.211	254
962.59	268
971.958	310
981.314	432
990.659	1136
999.99	4054
1009.31	1560
1018.62	424
1027.91	1130
1037.2	1386
1046.47	478
1055.73	372
1064.98	410
1074.22	410
1083.44	422
1092.65	380
1101.86	416
1111.05	328
1120.22	282
1129.39	258
1138.54	272
1147.69	384
1156.82	934
1165.94	472
1175.05	596
1184.14	1208
1193.23	1112
1202.3	1132
1211.36	702
1220.41	452
1229.45	408
1238.48	362
1247.5	342
1256.5	324
1265.49	344
1274.48	326
1283.45	318
1292.41	344
1301.36	374
1310.29	422
1319.22	438
1328.13	520
1337.04	486
1345.93	376
1354.81	368
1363.68	358
1372.54	366
1381.38	320
1390.22	262
1399.05	258
1407.86	260
1416.66	248
1425.46	248
1434.24	290
1443.01	470
1451.77	586
1460.52	380
1469.25	256
1477.98	254
1486.7	234
1495.4	292
1504.1	248
1512.78	230
1521.45	230
1530.11	250
1538.76	264
1547.41	264
1556.03	254
1564.65	294
1573.26	348
1581.86	780
1590.45	592
1599.02	1180
1607.59	1278
1616.14	450
1624.69	358
1633.22	310
1641.75	314
1650.26	320
1658.76	290
1667.26	264
1675.74	274
1684.21	280
1692.67	288
1701.12	284
1709.56	246
1717.99	272
1726.41	266
1734.82	256
1743.22	270
1751.61	278
1759.99	276
1768.36	264
1776.71	264
1785.06	264
1793.4	252
1801.73	288
1810.04	280
1818.35	288
1826.65	272
1834.94	286
1843.21	276
1851.48	292
1859.74	272
1867.98	284
1876.22	280
1884.45	260
1892.67	288
1900.87	262
1909.07	296
1917.26	304
1925.43	312
1933.6	316
1941.76	284
1949.91	304
1958.05	286
1966.17	276
1974.29	300
1982.4	300
1990.5	284
1998.59	314
2006.67	302
2014.74	320
2022.8	320
2030.85	300
2038.89	326
2046.92	310
2054.94	300
2062.95	318
2070.96	320
2078.95	306
2086.93	312
2094.91	316
2102.87	322
2110.83	322
2118.77	340
2126.71	326
2134.63	318
2142.55	310
2150.46	306
2158.35	324
2166.24	330
2174.12	338
2181.99	338
2189.85	326
2197.7	308
2205.55	334
2213.38	328
2221.2	328
2229.02	368
2236.82	332
2244.62	334
2252.4	354
2260.18	348
2267.95	348
2275.71	352
2283.46	356
2291.2	356
2298.93	374
2306.65	350
2314.37	366
2322.07	338
2329.77	352
2337.45	348
2345.13	356
2352.8	358
2360.46	364
2368.11	364
2375.75	362
2383.38	360
2391.01	374
2398.62	368
2406.23	366
2413.82	374
2421.41	346
2428.99	368
2436.56	362
2444.12	370
2449.79	376