File: Mixture_Classification/Jesse_Dataset_v2/Pure Raman/Polystyrene/633nm/ps-ppo-7jan25-1,0000-map3_Y06_X10.txt
182.393	1104
192.79	980
203.174	990
213.542	1108
223.897	1116
234.238	894
244.566	564
254.878	438
265.178	410
275.463	382
285.734	356
295.992	304
306.236	288
316.467	310
326.684	298
336.887	276
347.075	276
357.251	286
367.413	272
377.562	286
387.697	318
397.819	328
407.926	378
418.02	336
428.101	290
438.169	272
448.223	254
458.264	252
468.291	226
478.306	236
488.307	234
498.294	210
508.269	252
518.23	242
528.177	256
538.113	290
548.034	310
557.942	292
567.838	298
577.72	292
587.589	242
597.446	266
607.289	304
617.119	484
626.936	560
636.741	268
646.533	220
656.313	216
666.078	214
675.831	226
685.571	216
695.299	222
705.014	248
714.716	254
724.406	344
734.082	300
743.746	420
753.398	452
763.037	514
772.664	474
782.278	512
791.879	702
801.467	660
811.044	446
820.608	346
830.16	318
839.699	400
849.226	386
858.741	352
868.243	360
877.731	336
887.209	328
896.674	330
906.128	424
915.569	366
924.997	320
934.414	320
943.818	314
953.211	324
962.59	340
971.958	384
981.314	512
990.659	1214
999.99	4238
1009.31	1594
1018.62	526
1027.91	1234
1037.2	1468
1046.47	582
1055.73	462
1064.98	474
1074.22	534
1083.44	458
1092.65	492
1101.86	486
1111.05	434
1120.22	382
1129.39	358
1138.54	386
1147.69	502
1156.82	1032
1165.94	582
1175.05	738
1184.14	1266
1193.23	1170
1202.3	1242
1211.36	814
1220.41	584
1229.45	478
1238.48	444
1247.5	436
1256.5	442
1265.49	434
1274.48	438
1283.45	410
1292.41	440
1301.36	484
1310.29	500
1319.22	564
1328.13	576
1337.04	536
1345.93	452
1354.81	438
1363.68	446
1372.54	458
1381.38	416
1390.22	342
1399.05	328
1407.86	340
1416.66	308
1425.46	314
1434.24	384
1443.01	534
1451.77	656
1460.52	440
1469.25	356
1477.98	326
1486.7	322
1495.4	332
1504.1	318
1512.78	314
1521.45	316
1530.11	322
1538.76	326
1547.41	330
1556.03	334
1564.65	366
1573.26	406
1581.86	842
1590.45	604
1599.02	1274
1607.59	1350
1616.14	506
1624.69	408
1633.22	378
1641.75	362
1650.26	402
1658.76	336
1667.26	326
1675.74	332
1684.21	348
1692.67	316
1701.12	326
1709.56	308
1717.99	314
1726.41	312
1734.82	316
1743.22	302
1751.61	304
1759.99	306
1768.36	322
1776.71	298
1785.06	340
1793.4	316
1801.73	328
1810.04	310
1818.35	324
1826.65	312
1834.94	322
1843.21	322
1851.48	324
1859.74	340
1867.98	334
1876.22	324
1884.45	348
1892.67	318
1900.87	312
1909.07	340
1917.26	350
1925.43	322
1933.6	346
1941.76	334
1949.91	318
1958.05	332
1966.17	322
1974.29	338
1982.4	334
1990.5	318
1998.59	334
2006.67	330
2014.74	326
2022.8	344
2030.85	328
2038.89	312
2046.92	340
2054.94	346
2062.95	344
2070.96	330
2078.95	338
2086.93	336
2094.91	350
2102.87	344
2110.83	338
2118.77	356
2126.71	354
2134.63	366
2142.55	340
2150.46	356
2158.35	326
2166.24	372
2174.12	340
2181.99	358
2189.85	348
2197.7	328
2205.55	366
2213.38	354
2221.2	334
2229.02	378
2236.82	366
2244.62	348
2252.4	350
2260.18	366
2267.95	362
2275.71	342
2283.46	352
2291.2	354
2298.93	344
2306.65	372
2314.37	360
2322.07	370
2329.77	366
2337.45	382
2345.13	356
2352.8	362
2360.46	384
2368.11	358
2375.75	352
2383.38	384
2391.01	374
2398.62	370
2406.23	392
2413.82	362
2421.41	384
2428.99	372
2436.56	388
2444.12	398
2449.79	392