File: Mixture_Classification/Jesse_Dataset_v2/Pure Raman/Polystyrene/633nm/ps-ppo-7jan25-1,0000-map3_Y05_X07.txt
182.393	1024
192.79	932
203.174	956
213.542	1046
223.897	1088
234.238	816
244.566	530
254.878	414
265.178	346
275.463	318
285.734	298
295.992	260
306.236	240
316.467	260
326.684	252
336.887	246
347.075	224
357.251	252
367.413	242
377.562	264
387.697	286
397.819	292
407.926	370
418.02	284
428.101	244
438.169	250
448.223	228
458.264	184
468.291	204
478.306	194
488.307	184
498.294	192
508.269	228
518.23	216
528.177	230
538.113	238
548.034	292
557.942	244
567.838	256
577.72	262
587.589	228
597.446	226
607.289	288
617.119	434
626.936	576
636.741	252
646.533	212
656.313	200
666.078	188
675.831	194
685.571	180
695.299	194
705.014	256
714.716	230
724.406	316
734.082	302
743.746	404
753.398	438
763.037	514
772.664	440
782.278	510
791.879	686
801.467	612
811.044	410
820.608	310
830.16	294
839.699	380
849.226	382
858.741	296
868.243	326
877.731	322
887.209	304
896.674	300
906.128	386
915.569	296
924.997	268
934.414	284
943.818	282
953.211	292
962.59	312
971.958	348
981.314	486
990.659	1204
999.99	4182
1009.31	1570
1018.62	480
1027.91	1206
1037.2	1448
1046.47	472
1055.73	424
1064.98	450
1074.22	454
1083.44	438
1092.65	430
1101.86	440
1111.05	380
1120.22	320
1129.39	286
1138.54	312
1147.69	428
1156.82	1000
1165.94	528
1175.05	640
1184.14	1212
1193.23	1144
1202.3	1154
1211.36	708
1220.41	516
1229.45	432
1238.48	400
1247.5	382
1256.5	368
1265.49	334
1274.48	348
1283.45	356
1292.41	380
1301.36	422
1310.29	424
1319.22	470
1328.13	518
1337.04	512
1345.93	408
1354.81	384
1363.68	370
1372.54	370
1381.38	320
1390.22	294
1399.05	296
1407.86	294
1416.66	264
1425.46	276
1434.24	330
1443.01	504
1451.77	596
1460.52	370
1469.25	294
1477.98	292
1486.7	284
1495.4	304
1504.1	280
1512.78	278
1521.45	268
1530.11	280
1538.76	272
1547.41	276
1556.03	294
1564.65	312
1573.26	378
1581.86	816
1590.45	606
1599.02	1232
1607.59	1306
1616.14	498
1624.69	366
1633.22	336
1641.75	326
1650.26	346
1658.76	294
1667.26	276
1675.74	296
1684.21	310
1692.67	308
1701.12	280
1709.56	282
1717.99	282
1726.41	290
1734.82	284
1743.22	290
1751.61	300
1759.99	290
1768.36	284
1776.71	290
1785.06	288
1793.4	296
1801.73	296
1810.04	300
1818.35	312
1826.65	306
1834.94	304
1843.21	312
1851.48	300
1859.74	302
1867.98	300
1876.22	300
1884.45	308
1892.67	324
1900.87	302
1909.07	314
1917.26	306
1925.43	314
1933.6	320
1941.76	316
1949.91	328
1958.05	300
1966.17	316
1974.29	310
1982.4	336
1990.5	302
1998.59	320
2006.67	310
2014.74	322
2022.8	332
2030.85	304
2038.89	334
2046.92	336
2054.94	326
2062.95	330
2070.96	324
2078.95	322
2086.93	318
2094.91	330
2102.87	308
2110.83	316
2118.77	334
2126.71	328
2134.63	352
2142.55	344
2150.46	324
2158.35	310
2166.24	340
2174.12	342
2181.99	340
2189.85	330
2197.7	358
2205.55	348
2213.38	336
2221.2	318
2229.02	336
2236.82	342
2244.62	344
2252.4	358
2260.18	344
2267.95	356
2275.71	338
2283.46	328
2291.2	354
2298.93	360
2306.65	346
2314.37	350
2322.07	352
2329.77	354
2337.45	354
2345.13	348
2352.8	354
2360.46	360
2368.11	348
2375.75	354
2383.38	350
2391.01	352
2398.62	360
2406.23	352
2413.82	364
2421.41	360
2428.99	370
2436.56	374
2444.12	368
2449.79	346