File: Mixture_Classification/Jesse_Dataset_v2/Pure Raman/Polystyrene/633nm/ps-ppo-7jan25-1,0000-map3_Y10_X06.txt
182.393	1010
192.79	930
203.174	932
213.542	1022
223.897	1056
234.238	836
244.566	516
254.878	358
265.178	324
275.463	322
285.734	276
295.992	226
306.236	228
316.467	228
326.684	228
336.887	230
347.075	214
357.251	222
367.413	196
377.562	234
387.697	262
397.819	266
407.926	330
418.02	268
428.101	222
438.169	216
448.223	208
458.264	180
468.291	172
478.306	174
488.307	172
498.294	168
508.269	180
518.23	188
528.177	208
538.113	248
548.034	248
557.942	242
567.838	234
577.72	244
587.589	200
597.446	200
607.289	254
617.119	400
626.936	528
636.741	198
646.533	176
656.313	158
666.078	150
675.831	164
685.571	154
695.299	168
705.014	204
714.716	206
724.406	274
734.082	268
743.746	394
753.398	414
763.037	462
772.664	402
782.278	412
791.879	618
801.467	614
811.044	394
820.608	286
830.16	250
839.699	316
849.226	322
858.741	268
868.243	296
877.731	282
887.209	260
896.674	282
906.128	330
915.569	274
924.997	228
934.414	232
943.818	240
953.211	252
962.59	278
971.958	300
981.314	448
990.659	1196
999.99	4266
1009.31	1500
1018.62	468
1027.91	1192
1037.2	1356
1046.47	478
1055.73	376
1064.98	408
1074.22	404
1083.44	404
1092.65	406
1101.86	396
1111.05	348
1120.22	294
1129.39	252
1138.54	278
1147.69	380
1156.82	924
1165.94	462
1175.05	616
1184.14	1182
1193.23	1120
1202.3	1110
1211.36	674
1220.41	464
1229.45	406
1238.48	368
1247.5	344
1256.5	342
1265.49	346
1274.48	320
1283.45	324
1292.41	350
1301.36	374
1310.29	408
1319.22	448
1328.13	534
1337.04	480
1345.93	386
1354.81	352
1363.68	352
1372.54	386
1381.38	334
1390.22	266
1399.05	268
1407.86	258
1416.66	242
1425.46	238
1434.24	302
1443.01	494
1451.77	586
1460.52	362
1469.25	278
1477.98	258
1486.7	232
1495.4	286
1504.1	228
1512.78	262
1521.45	268
1530.11	238
1538.76	274
1547.41	284
1556.03	280
1564.65	300
1573.26	346
1581.86	806
1590.45	586
1599.02	1218
1607.59	1292
1616.14	446
1624.69	322
1633.22	312
1641.75	314
1650.26	326
1658.76	290
1667.26	276
1675.74	292
1684.21	266
1692.67	270
1701.12	268
1709.56	268
1717.99	284
1726.41	256
1734.82	282
1743.22	276
1751.61	262
1759.99	260
1768.36	258
1776.71	270
1785.06	270
1793.4	268
1801.73	288
1810.04	284
1818.35	274
1826.65	276
1834.94	276
1843.21	270
1851.48	274
1859.74	280
1867.98	292
1876.22	268
1884.45	266
1892.67	288
1900.87	282
1909.07	286
1917.26	288
1925.43	306
1933.6	290
1941.76	308
1949.91	302
1958.05	284
1966.17	288
1974.29	300
1982.4	280
1990.5	296
1998.59	280
2006.67	300
2014.74	300
2022.8	292
2030.85	300
2038.89	302
2046.92	288
2054.94	304
2062.95	324
2070.96	308
2078.95	286
2086.93	322
2094.91	310
2102.87	318
2110.83	304
2118.77	286
2126.71	326
2134.63	322
2142.55	314
2150.46	340
2158.35	298
2166.24	330
2174.12	308
2181.99	330
2189.85	300
2197.7	314
2205.55	312
2213.38	318
2221.2	312
2229.02	334
2236.82	334
2244.62	316
2252.4	324
2260.18	320
2267.95	320
2275.71	340
2283.46	324
2291.2	338
2298.93	308
2306.65	340
2314.37	320
2322.07	318
2329.77	340
2337.45	318
2345.13	330
2352.8	334
2360.46	360
2368.11	316
2375.75	346
2383.38	342
2391.01	330
2398.62	336
2406.23	340
2413.82	340
2421.41	332
2428.99	332
2436.56	346
2444.12	356
2449.79	340