File: Mixture_Classification/Jesse_Dataset_v2/Pure Raman/Polystyrene/633nm/ps-ppo-7jan25-1,0000-map3_Y05_X05.txt
182.393	968
192.79	910
203.174	910
213.542	1004
223.897	1054
234.238	808
244.566	476
254.878	344
265.178	304
275.463	278
285.734	236
295.992	218
306.236	202
316.467	202
326.684	200
336.887	206
347.075	202
357.251	174
367.413	186
377.562	194
387.697	220
397.819	256
407.926	306
418.02	248
428.101	210
438.169	202
448.223	176
458.264	154
468.291	158
478.306	158
488.307	144
498.294	152
508.269	160
518.23	170
528.177	186
538.113	218
548.034	236
557.942	220
567.838	218
577.72	220
587.589	192
597.446	180
607.289	220
617.119	380
626.936	490
636.741	198
646.533	154
656.313	144
666.078	150
675.831	142
685.571	152
695.299	162
705.014	186
714.716	186
724.406	258
734.082	226
743.746	334
753.398	412
763.037	436
772.664	398
782.278	422
791.879	618
801.467	596
811.044	374
820.608	244
830.16	236
839.699	316
849.226	314
858.741	278
868.243	268
877.731	274
887.209	268
896.674	268
906.128	312
915.569	262
924.997	232
934.414	222
943.818	248
953.211	226
962.59	286
971.958	300
981.314	426
990.659	1154
999.99	4116
1009.31	1568
1018.62	432
1027.91	1180
1037.2	1430
1046.47	442
1055.73	386
1064.98	408
1074.22	410
1083.44	392
1092.65	396
1101.86	398
1111.05	324
1120.22	288
1129.39	242
1138.54	258
1147.69	396
1156.82	926
1165.94	470
1175.05	618
1184.14	1166
1193.23	1086
1202.3	1136
1211.36	710
1220.41	448
1229.45	406
1238.48	334
1247.5	338
1256.5	318
1265.49	326
1274.48	306
1283.45	338
1292.41	340
1301.36	386
1310.29	380
1319.22	448
1328.13	488
1337.04	460
1345.93	370
1354.81	352
1363.68	350
1372.54	352
1381.38	314
1390.22	258
1399.05	248
1407.86	256
1416.66	230
1425.46	236
1434.24	288
1443.01	470
1451.77	552
1460.52	356
1469.25	262
1477.98	270
1486.7	246
1495.4	288
1504.1	236
1512.78	240
1521.45	250
1530.11	244
1538.76	242
1547.41	254
1556.03	262
1564.65	280
1573.26	360
1581.86	786
1590.45	578
1599.02	1182
1607.59	1282
1616.14	478
1624.69	336
1633.22	292
1641.75	312
1650.26	322
1658.76	284
1667.26	264
1675.74	272
1684.21	274
1692.67	280
1701.12	254
1709.56	246
1717.99	252
1726.41	252
1734.82	250
1743.22	256
1751.61	256
1759.99	270
1768.36	256
1776.71	260
1785.06	278
1793.4	270
1801.73	266
1810.04	264
1818.35	274
1826.65	278
1834.94	274
1843.21	280
1851.48	254
1859.74	272
1867.98	278
1876.22	278
1884.45	268
1892.67	274
1900.87	286
1909.07	288
1917.26	284
1925.43	272
1933.6	302
1941.76	302
1949.91	288
1958.05	292
1966.17	290
1974.29	274
1982.4	292
1990.5	280
1998.59	296
2006.67	286
2014.74	288
2022.8	306
2030.85	298
2038.89	302
2046.92	288
2054.94	304
2062.95	314
2070.96	302
2078.95	284
2086.93	282
2094.91	326
2102.87	312
2110.83	308
2118.77	314
2126.71	316
2134.63	310
2142.55	320
2150.46	314
2158.35	320
2166.24	304
2174.12	306
2181.99	318
2189.85	330
2197.7	314
2205.55	322
2213.38	322
2221.2	320
2229.02	308
2236.82	316
2244.62	316
2252.4	336
2260.18	314
2267.95	328
2275.71	318
2283.46	316
2291.2	320
2298.93	316
2306.65	322
2314.37	336
2322.07	316
2329.77	308
2337.45	334
2345.13	310
2352.8	324
2360.46	322
2368.11	342
2375.75	348
2383.38	314
2391.01	322
2398.62	330
2406.23	338
2413.82	336
2421.41	342
2428.99	348
2436.56	356
2444.12	332
2449.79	346