File: Mixture_Classification/Jesse_Dataset_v2/Pure Raman/Polystyrene/633nm/ps-ppo-7jan25-1,0000-map3_Y07_X03.txt
182.393	1064
192.79	908
203.174	972
213.542	1056
223.897	1116
234.238	850
244.566	548
254.878	410
265.178	364
275.463	332
285.734	298
295.992	264
306.236	242
316.467	272
326.684	264
336.887	246
347.075	232
357.251	234
367.413	234
377.562	248
387.697	298
397.819	292
407.926	378
418.02	294
428.101	266
438.169	242
448.223	234
458.264	220
468.291	212
478.306	194
488.307	204
498.294	198
508.269	220
518.23	210
528.177	228
538.113	266
548.034	276
557.942	280
567.838	278
577.72	274
587.589	220
597.446	222
607.289	294
617.119	438
626.936	550
636.741	248
646.533	204
656.313	196
666.078	192
675.831	178
685.571	188
695.299	186
705.014	244
714.716	232
724.406	304
734.082	278
743.746	384
753.398	448
763.037	490
772.664	432
782.278	480
791.879	684
801.467	628
811.044	434
820.608	322
830.16	270
839.699	348
849.226	342
858.741	322
868.243	312
877.731	288
887.209	280
896.674	298
906.128	352
915.569	304
924.997	284
934.414	264
943.818	282
953.211	262
962.59	298
971.958	338
981.314	482
990.659	1146
999.99	4218
1009.31	1596
1018.62	490
1027.91	1214
1037.2	1448
1046.47	494
1055.73	388
1064.98	422
1074.22	428
1083.44	416
1092.65	428
1101.86	406
1111.05	340
1120.22	290
1129.39	272
1138.54	286
1147.69	414
1156.82	980
1165.94	530
1175.05	624
1184.14	1176
1193.23	1110
1202.3	1154
1211.36	772
1220.41	478
1229.45	428
1238.48	352
1247.5	364
1256.5	350
1265.49	368
1274.48	352
1283.45	338
1292.41	382
1301.36	400
1310.29	418
1319.22	468
1328.13	542
1337.04	484
1345.93	406
1354.81	360
1363.68	374
1372.54	378
1381.38	358
1390.22	262
1399.05	246
1407.86	274
1416.66	258
1425.46	260
1434.24	318
1443.01	480
1451.77	602
1460.52	378
1469.25	296
1477.98	276
1486.7	274
1495.4	312
1504.1	266
1512.78	250
1521.45	254
1530.11	254
1538.76	290
1547.41	264
1556.03	290
1564.65	298
1573.26	350
1581.86	814
1590.45	590
1599.02	1176
1607.59	1316
1616.14	480
1624.69	370
1633.22	322
1641.75	332
1650.26	356
1658.76	276
1667.26	272
1675.74	284
1684.21	306
1692.67	284
1701.12	282
1709.56	276
1717.99	274
1726.41	284
1734.82	268
1743.22	306
1751.61	302
1759.99	290
1768.36	284
1776.71	282
1785.06	262
1793.4	294
1801.73	290
1810.04	290
1818.35	292
1826.65	306
1834.94	296
1843.21	298
1851.48	292
1859.74	314
1867.98	276
1876.22	294
1884.45	300
1892.67	306
1900.87	284
1909.07	300
1917.26	310
1925.43	314
1933.6	304
1941.76	338
1949.91	306
1958.05	310
1966.17	314
1974.29	302
1982.4	298
1990.5	328
1998.59	308
2006.67	294
2014.74	294
2022.8	320
2030.85	300
2038.89	314
2046.92	324
2054.94	312
2062.95	314
2070.96	310
2078.95	318
2086.93	316
2094.91	340
2102.87	328
2110.83	316
2118.77	322
2126.71	322
2134.63	328
2142.55	330
2150.46	330
2158.35	334
2166.24	336
2174.12	320
2181.99	312
2189.85	326
2197.7	350
2205.55	332
2213.38	358
2221.2	340
2229.02	340
2236.82	346
2244.62	350
2252.4	328
2260.18	344
2267.95	332
2275.71	352
2283.46	342
2291.2	338
2298.93	320
2306.65	346
2314.37	350
2322.07	336
2329.77	364
2337.45	346
2345.13	348
2352.8	336
2360.46	332
2368.11	346
2375.75	342
2383.38	346
2391.01	348
2398.62	344
2406.23	358
2413.82	362
2421.41	364
2428.99	354
2436.56	352
2444.12	354
2449.79	372