File: Mixture_Classification/Jesse_Dataset_v2/Pure Raman/Polystyrene/633nm/ps-ppo-7jan25-1,0000-map3_Y09_X06.txt
182.393	1024
192.79	950
203.174	914
213.542	1022
223.897	1068
234.238	798
244.566	506
254.878	372
265.178	326
275.463	318
285.734	276
295.992	240
306.236	238
316.467	226
326.684	222
336.887	226
347.075	204
357.251	204
367.413	214
377.562	228
387.697	222
397.819	276
407.926	334
418.02	266
428.101	214
438.169	198
448.223	200
458.264	172
468.291	170
478.306	158
488.307	158
498.294	170
508.269	182
518.23	178
528.177	200
538.113	230
548.034	254
557.942	234
567.838	238
577.72	230
587.589	198
597.446	194
607.289	212
617.119	412
626.936	522
636.741	216
646.533	152
656.313	156
666.078	164
675.831	138
685.571	150
695.299	164
705.014	184
714.716	218
724.406	296
734.082	260
743.746	358
753.398	400
763.037	450
772.664	402
782.278	442
791.879	638
801.467	582
811.044	360
820.608	284
830.16	260
839.699	338
849.226	304
858.741	270
868.243	264
877.731	274
887.209	258
896.674	254
906.128	338
915.569	288
924.997	240
934.414	240
943.818	242
953.211	240
962.59	284
971.958	320
981.314	458
990.659	1106
999.99	4178
1009.31	1542
1018.62	458
1027.91	1138
1037.2	1398
1046.47	458
1055.73	360
1064.98	402
1074.22	410
1083.44	378
1092.65	392
1101.86	402
1111.05	322
1120.22	320
1129.39	228
1138.54	262
1147.69	398
1156.82	936
1165.94	496
1175.05	616
1184.14	1168
1193.23	1080
1202.3	1120
1211.36	698
1220.41	450
1229.45	422
1238.48	342
1247.5	352
1256.5	316
1265.49	340
1274.48	324
1283.45	352
1292.41	376
1301.36	394
1310.29	402
1319.22	442
1328.13	520
1337.04	456
1345.93	360
1354.81	346
1363.68	354
1372.54	364
1381.38	308
1390.22	278
1399.05	262
1407.86	258
1416.66	248
1425.46	268
1434.24	310
1443.01	462
1451.77	600
1460.52	376
1469.25	268
1477.98	258
1486.7	280
1495.4	280
1504.1	264
1512.78	260
1521.45	260
1530.11	252
1538.76	248
1547.41	270
1556.03	278
1564.65	292
1573.26	348
1581.86	826
1590.45	588
1599.02	1210
1607.59	1280
1616.14	474
1624.69	342
1633.22	300
1641.75	330
1650.26	324
1658.76	292
1667.26	256
1675.74	288
1684.21	272
1692.67	274
1701.12	284
1709.56	270
1717.99	272
1726.41	256
1734.82	254
1743.22	268
1751.61	272
1759.99	284
1768.36	284
1776.71	272
1785.06	280
1793.4	272
1801.73	270
1810.04	264
1818.35	258
1826.65	252
1834.94	276
1843.21	284
1851.48	288
1859.74	280
1867.98	274
1876.22	282
1884.45	276
1892.67	286
1900.87	286
1909.07	284
1917.26	296
1925.43	292
1933.6	294
1941.76	290
1949.91	286
1958.05	298
1966.17	294
1974.29	306
1982.4	294
1990.5	280
1998.59	288
2006.67	302
2014.74	302
2022.8	286
2030.85	322
2038.89	298
2046.92	320
2054.94	312
2062.95	318
2070.96	314
2078.95	314
2086.93	322
2094.91	316
2102.87	330
2110.83	310
2118.77	314
2126.71	320
2134.63	310
2142.55	330
2150.46	316
2158.35	298
2166.24	320
2174.12	312
2181.99	324
2189.85	314
2197.7	340
2205.55	320
2213.38	332
2221.2	330
2229.02	344
2236.82	324
2244.62	324
2252.4	332
2260.18	330
2267.95	334
2275.71	344
2283.46	342
2291.2	332
2298.93	316
2306.65	338
2314.37	348
2322.07	322
2329.77	330
2337.45	342
2345.13	340
2352.8	340
2360.46	338
2368.11	334
2375.75	334
2383.38	358
2391.01	334
2398.62	354
2406.23	324
2413.82	350
2421.41	356
2428.99	338
2436.56	364
2444.12	342
2449.79	358