File: Mixture_Classification/Jesse_Dataset_v2/Pure Raman/Polystyrene/633nm/ps-ppo-7jan25-1,0000-map3_Y09_X07.txt
182.393	1050
192.79	926
203.174	938
213.542	1026
223.897	1090
234.238	854
244.566	524
254.878	410
265.178	362
275.463	332
285.734	300
295.992	240
306.236	218
316.467	260
326.684	246
336.887	246
347.075	222
357.251	236
367.413	248
377.562	252
387.697	282
397.819	290
407.926	370
418.02	308
428.101	252
438.169	220
448.223	232
458.264	206
468.291	178
478.306	186
488.307	198
498.294	200
508.269	216
518.23	192
528.177	222
538.113	270
548.034	270
557.942	258
567.838	250
577.72	260
587.589	216
597.446	234
607.289	266
617.119	432
626.936	536
636.741	234
646.533	202
656.313	182
666.078	176
675.831	166
685.571	172
695.299	188
705.014	208
714.716	202
724.406	310
734.082	288
743.746	406
753.398	416
763.037	494
772.664	438
782.278	476
791.879	648
801.467	630
811.044	406
820.608	298
830.16	270
839.699	342
849.226	338
858.741	304
868.243	316
877.731	292
887.209	278
896.674	296
906.128	360
915.569	306
924.997	256
934.414	268
943.818	278
953.211	270
962.59	294
971.958	334
981.314	466
990.659	1190
999.99	4258
1009.31	1582
1018.62	466
1027.91	1216
1037.2	1444
1046.47	502
1055.73	394
1064.98	418
1074.22	450
1083.44	440
1092.65	432
1101.86	418
1111.05	360
1120.22	320
1129.39	280
1138.54	302
1147.69	430
1156.82	970
1165.94	522
1175.05	638
1184.14	1224
1193.23	1128
1202.3	1166
1211.36	740
1220.41	502
1229.45	440
1238.48	384
1247.5	374
1256.5	368
1265.49	368
1274.48	334
1283.45	366
1292.41	396
1301.36	410
1310.29	416
1319.22	498
1328.13	516
1337.04	514
1345.93	404
1354.81	380
1363.68	384
1372.54	406
1381.38	356
1390.22	284
1399.05	296
1407.86	276
1416.66	274
1425.46	268
1434.24	324
1443.01	468
1451.77	614
1460.52	388
1469.25	298
1477.98	288
1486.7	268
1495.4	312
1504.1	256
1512.78	254
1521.45	266
1530.11	286
1538.76	278
1547.41	300
1556.03	300
1564.65	318
1573.26	382
1581.86	844
1590.45	594
1599.02	1262
1607.59	1254
1616.14	488
1624.69	366
1633.22	318
1641.75	348
1650.26	342
1658.76	294
1667.26	276
1675.74	300
1684.21	308
1692.67	306
1701.12	296
1709.56	290
1717.99	294
1726.41	266
1734.82	272
1743.22	262
1751.61	280
1759.99	296
1768.36	286
1776.71	288
1785.06	304
1793.4	282
1801.73	290
1810.04	326
1818.35	324
1826.65	298
1834.94	328
1843.21	326
1851.48	306
1859.74	300
1867.98	292
1876.22	300
1884.45	294
1892.67	310
1900.87	304
1909.07	298
1917.26	332
1925.43	328
1933.6	316
1941.76	318
1949.91	316
1958.05	320
1966.17	318
1974.29	326
1982.4	300
1990.5	328
1998.59	294
2006.67	310
2014.74	300
2022.8	318
2030.85	304
2038.89	330
2046.92	328
2054.94	324
2062.95	336
2070.96	314
2078.95	340
2086.93	348
2094.91	324
2102.87	342
2110.83	322
2118.77	334
2126.71	324
2134.63	348
2142.55	328
2150.46	332
2158.35	330
2166.24	338
2174.12	336
2181.99	326
2189.85	338
2197.7	344
2205.55	340
2213.38	326
2221.2	336
2229.02	338
2236.82	322
2244.62	336
2252.4	334
2260.18	348
2267.95	350
2275.71	358
2283.46	332
2291.2	354
2298.93	348
2306.65	340
2314.37	356
2322.07	348
2329.77	346
2337.45	360
2345.13	328
2352.8	348
2360.46	350
2368.11	328
2375.75	352
2383.38	352
2391.01	356
2398.62	352
2406.23	358
2413.82	368
2421.41	334
2428.99	362
2436.56	352
2444.12	358
2449.79	374