File: Mixture_Classification/Jesse_Dataset_v2/Pure Raman/Polystyrene/633nm/ps-ppo-7jan25-1,0000-map3_Y07_X07.txt
182.393	1108
192.79	994
203.174	1026
213.542	1068
223.897	1130
234.238	888
244.566	580
254.878	434
265.178	392
275.463	370
285.734	332
295.992	294
306.236	266
316.467	290
326.684	266
336.887	290
347.075	274
357.251	264
367.413	270
377.562	276
387.697	296
397.819	316
407.926	370
418.02	332
428.101	282
438.169	258
448.223	256
458.264	242
468.291	234
478.306	216
488.307	214
498.294	220
508.269	228
518.23	222
528.177	232
538.113	294
548.034	302
557.942	298
567.838	288
577.72	272
587.589	254
597.446	232
607.289	314
617.119	458
626.936	550
636.741	254
646.533	208
656.313	204
666.078	192
675.831	202
685.571	198
695.299	216
705.014	250
714.716	232
724.406	312
734.082	300
743.746	424
753.398	452
763.037	484
772.664	434
782.278	476
791.879	700
801.467	644
811.044	420
820.608	318
830.16	318
839.699	370
849.226	380
858.741	318
868.243	336
877.731	304
887.209	340
896.674	334
906.128	410
915.569	340
924.997	296
934.414	290
943.818	292
953.211	282
962.59	344
971.958	370
981.314	502
990.659	1210
999.99	4270
1009.31	1620
1018.62	518
1027.91	1208
1037.2	1470
1046.47	528
1055.73	432
1064.98	456
1074.22	480
1083.44	466
1092.65	482
1101.86	480
1111.05	402
1120.22	346
1129.39	320
1138.54	338
1147.69	440
1156.82	1026
1165.94	564
1175.05	680
1184.14	1260
1193.23	1170
1202.3	1190
1211.36	778
1220.41	538
1229.45	452
1238.48	416
1247.5	400
1256.5	384
1265.49	386
1274.48	384
1283.45	366
1292.41	424
1301.36	456
1310.29	442
1319.22	508
1328.13	558
1337.04	522
1345.93	422
1354.81	390
1363.68	402
1372.54	406
1381.38	366
1390.22	318
1399.05	286
1407.86	312
1416.66	288
1425.46	288
1434.24	350
1443.01	504
1451.77	634
1460.52	404
1469.25	314
1477.98	310
1486.7	302
1495.4	324
1504.1	306
1512.78	298
1521.45	282
1530.11	298
1538.76	304
1547.41	284
1556.03	302
1564.65	338
1573.26	400
1581.86	846
1590.45	614
1599.02	1254
1607.59	1318
1616.14	486
1624.69	364
1633.22	346
1641.75	354
1650.26	358
1658.76	308
1667.26	294
1675.74	304
1684.21	308
1692.67	318
1701.12	292
1709.56	302
1717.99	298
1726.41	288
1734.82	282
1743.22	284
1751.61	302
1759.99	288
1768.36	302
1776.71	286
1785.06	302
1793.4	292
1801.73	304
1810.04	298
1818.35	300
1826.65	308
1834.94	302
1843.21	298
1851.48	312
1859.74	302
1867.98	318
1876.22	308
1884.45	298
1892.67	310
1900.87	308
1909.07	296
1917.26	314
1925.43	316
1933.6	326
1941.76	316
1949.91	320
1958.05	326
1966.17	300
1974.29	306
1982.4	316
1990.5	316
1998.59	322
2006.67	316
2014.74	320
2022.8	322
2030.85	316
2038.89	320
2046.92	328
2054.94	308
2062.95	342
2070.96	326
2078.95	310
2086.93	334
2094.91	322
2102.87	320
2110.83	328
2118.77	350
2126.71	332
2134.63	320
2142.55	334
2150.46	346
2158.35	344
2166.24	338
2174.12	354
2181.99	346
2189.85	348
2197.7	338
2205.55	338
2213.38	342
2221.2	344
2229.02	332
2236.82	322
2244.62	330
2252.4	350
2260.18	336
2267.95	346
2275.71	352
2283.46	348
2291.2	330
2298.93	342
2306.65	354
2314.37	352
2322.07	350
2329.77	334
2337.45	342
2345.13	344
2352.8	354
2360.46	342
2368.11	336
2375.75	352
2383.38	370
2391.01	356
2398.62	346
2406.23	354
2413.82	354
2421.41	342
2428.99	354
2436.56	334
2444.12	368
2449.79	366