File: Mixture_Classification/Jesse_Dataset_v2/Pure Raman/Polystyrene/633nm/ps-ppo-7jan25-1,0000-map3_Y02_X07.txt
182.393	1038
192.79	870
203.174	944
213.542	1070
223.897	1086
234.238	852
244.566	490
254.878	396
265.178	330
275.463	346
285.734	308
295.992	270
306.236	246
316.467	230
326.684	244
336.887	258
347.075	252
357.251	224
367.413	224
377.562	252
387.697	262
397.819	306
407.926	382
418.02	312
428.101	260
438.169	236
448.223	226
458.264	196
468.291	198
478.306	186
488.307	188
498.294	200
508.269	212
518.23	202
528.177	224
538.113	286
548.034	274
557.942	240
567.838	268
577.72	264
587.589	230
597.446	218
607.289	264
617.119	440
626.936	542
636.741	226
646.533	194
656.313	188
666.078	176
675.831	172
685.571	178
695.299	188
705.014	234
714.716	212
724.406	292
734.082	286
743.746	396
753.398	460
763.037	492
772.664	426
782.278	466
791.879	662
801.467	646
811.044	410
820.608	314
830.16	292
839.699	362
849.226	348
858.741	306
868.243	302
877.731	288
887.209	286
896.674	296
906.128	354
915.569	312
924.997	250
934.414	252
943.818	284
953.211	280
962.59	326
971.958	336
981.314	466
990.659	1140
999.99	4164
1009.31	1578
1018.62	464
1027.91	1172
1037.2	1420
1046.47	488
1055.73	410
1064.98	422
1074.22	456
1083.44	434
1092.65	434
1101.86	410
1111.05	350
1120.22	318
1129.39	290
1138.54	302
1147.69	426
1156.82	990
1165.94	542
1175.05	642
1184.14	1204
1193.23	1146
1202.3	1210
1211.36	756
1220.41	508
1229.45	464
1238.48	378
1247.5	386
1256.5	376
1265.49	374
1274.48	360
1283.45	362
1292.41	390
1301.36	436
1310.29	444
1319.22	526
1328.13	554
1337.04	544
1345.93	420
1354.81	394
1363.68	422
1372.54	418
1381.38	352
1390.22	308
1399.05	282
1407.86	314
1416.66	302
1425.46	304
1434.24	346
1443.01	520
1451.77	622
1460.52	406
1469.25	340
1477.98	314
1486.7	312
1495.4	318
1504.1	308
1512.78	290
1521.45	280
1530.11	318
1538.76	308
1547.41	318
1556.03	320
1564.65	352
1573.26	402
1581.86	832
1590.45	638
1599.02	1254
1607.59	1352
1616.14	518
1624.69	416
1633.22	372
1641.75	388
1650.26	388
1658.76	348
1667.26	338
1675.74	324
1684.21	318
1692.67	338
1701.12	330
1709.56	324
1717.99	338
1726.41	336
1734.82	320
1743.22	320
1751.61	306
1759.99	324
1768.36	324
1776.71	324
1785.06	310
1793.4	342
1801.73	338
1810.04	352
1818.35	336
1826.65	336
1834.94	352
1843.21	342
1851.48	334
1859.74	336
1867.98	320
1876.22	346
1884.45	328
1892.67	328
1900.87	348
1909.07	360
1917.26	342
1925.43	362
1933.6	374
1941.76	356
1949.91	360
1958.05	366
1966.17	360
1974.29	358
1982.4	330
1990.5	346
1998.59	356
2006.67	344
2014.74	344
2022.8	368
2030.85	356
2038.89	348
2046.92	344
2054.94	366
2062.95	350
2070.96	354
2078.95	358
2086.93	360
2094.91	344
2102.87	364
2110.83	372
2118.77	374
2126.71	364
2134.63	368
2142.55	364
2150.46	378
2158.35	384
2166.24	368
2174.12	358
2181.99	372
2189.85	366
2197.7	368
2205.55	368
2213.38	378
2221.2	372
2229.02	370
2236.82	388
2244.62	358
2252.4	376
2260.18	374
2267.95	382
2275.71	380
2283.46	368
2291.2	396
2298.93	368
2306.65	372
2314.37	382
2322.07	376
2329.77	360
2337.45	364
2345.13	388
2352.8	384
2360.46	382
2368.11	362
2375.75	374
2383.38	368
2391.01	378
2398.62	398
2406.23	386
2413.82	378
2421.41	396
2428.99	378
2436.56	392
2444.12	400
2449.79	408