File: Mixture_Classification/Jesse_Dataset_v2/Pure Raman/Polystyrene/633nm/ps-ppo-7jan25-1,0000-map3_Y07_X02.txt
182.393	1022
192.79	916
203.174	918
213.542	1026
223.897	1066
234.238	808
244.566	510
254.878	370
265.178	328
275.463	314
285.734	266
295.992	256
306.236	232
316.467	238
326.684	248
336.887	216
347.075	220
357.251	212
367.413	228
377.562	238
387.697	264
397.819	276
407.926	344
418.02	272
428.101	234
438.169	214
448.223	204
458.264	176
468.291	182
478.306	170
488.307	158
498.294	170
508.269	196
518.23	184
528.177	194
538.113	236
548.034	248
557.942	252
567.838	240
577.72	244
587.589	220
597.446	206
607.289	256
617.119	408
626.936	518
636.741	216
646.533	172
656.313	158
666.078	160
675.831	160
685.571	162
695.299	168
705.014	224
714.716	198
724.406	280
734.082	262
743.746	378
753.398	404
763.037	472
772.664	422
782.278	428
791.879	646
801.467	630
811.044	376
820.608	286
830.16	278
839.699	340
849.226	328
858.741	276
868.243	298
877.731	258
887.209	284
896.674	264
906.128	352
915.569	274
924.997	250
934.414	240
943.818	238
953.211	256
962.59	296
971.958	296
981.314	432
990.659	1150
999.99	4240
1009.31	1512
1018.62	444
1027.91	1176
1037.2	1436
1046.47	452
1055.73	366
1064.98	392
1074.22	434
1083.44	398
1092.65	412
1101.86	398
1111.05	330
1120.22	284
1129.39	260
1138.54	288
1147.69	384
1156.82	974
1165.94	494
1175.05	598
1184.14	1244
1193.23	1090
1202.3	1114
1211.36	692
1220.41	470
1229.45	426
1238.48	346
1247.5	336
1256.5	352
1265.49	336
1274.48	354
1283.45	332
1292.41	348
1301.36	396
1310.29	402
1319.22	460
1328.13	524
1337.04	468
1345.93	384
1354.81	364
1363.68	374
1372.54	372
1381.38	336
1390.22	262
1399.05	280
1407.86	250
1416.66	242
1425.46	254
1434.24	332
1443.01	494
1451.77	588
1460.52	394
1469.25	270
1477.98	278
1486.7	260
1495.4	308
1504.1	268
1512.78	264
1521.45	272
1530.11	256
1538.76	264
1547.41	270
1556.03	278
1564.65	296
1573.26	372
1581.86	780
1590.45	582
1599.02	1224
1607.59	1294
1616.14	476
1624.69	348
1633.22	330
1641.75	298
1650.26	358
1658.76	298
1667.26	284
1675.74	282
1684.21	282
1692.67	294
1701.12	258
1709.56	280
1717.99	270
1726.41	266
1734.82	264
1743.22	258
1751.61	280
1759.99	268
1768.36	296
1776.71	268
1785.06	270
1793.4	296
1801.73	274
1810.04	288
1818.35	298
1826.65	268
1834.94	284
1843.21	274
1851.48	286
1859.74	296
1867.98	292
1876.22	294
1884.45	290
1892.67	296
1900.87	300
1909.07	296
1917.26	310
1925.43	312
1933.6	302
1941.76	280
1949.91	298
1958.05	312
1966.17	320
1974.29	304
1982.4	300
1990.5	296
1998.59	290
2006.67	310
2014.74	296
2022.8	294
2030.85	322
2038.89	324
2046.92	318
2054.94	300
2062.95	304
2070.96	324
2078.95	328
2086.93	278
2094.91	308
2102.87	326
2110.83	316
2118.77	308
2126.71	322
2134.63	314
2142.55	320
2150.46	322
2158.35	330
2166.24	322
2174.12	320
2181.99	312
2189.85	328
2197.7	316
2205.55	332
2213.38	326
2221.2	316
2229.02	342
2236.82	312
2244.62	316
2252.4	316
2260.18	316
2267.95	318
2275.71	328
2283.46	336
2291.2	308
2298.93	316
2306.65	328
2314.37	350
2322.07	334
2329.77	334
2337.45	332
2345.13	326
2352.8	334
2360.46	314
2368.11	340
2375.75	338
2383.38	318
2391.01	340
2398.62	340
2406.23	328
2413.82	342
2421.41	342
2428.99	342
2436.56	342
2444.12	360
2449.79	334