File: Mixture_Classification/Jesse_Dataset_v2/Pure Raman/Polystyrene/633nm/ps-ppo-7jan25-1,0000-map3_Y08_X09.txt
182.393	1044
192.79	954
203.174	952
213.542	1030
223.897	1076
234.238	848
244.566	526
254.878	384
265.178	320
275.463	324
285.734	296
295.992	248
306.236	222
316.467	250
326.684	238
336.887	232
347.075	232
357.251	228
367.413	222
377.562	232
387.697	278
397.819	306
407.926	362
418.02	286
428.101	244
438.169	218
448.223	218
458.264	194
468.291	192
478.306	178
488.307	178
498.294	192
508.269	208
518.23	214
528.177	208
538.113	248
548.034	250
557.942	250
567.838	252
577.72	256
587.589	214
597.446	224
607.289	264
617.119	408
626.936	514
636.741	220
646.533	192
656.313	172
666.078	164
675.831	178
685.571	192
695.299	188
705.014	224
714.716	210
724.406	308
734.082	278
743.746	348
753.398	396
763.037	470
772.664	430
782.278	456
791.879	648
801.467	606
811.044	400
820.608	296
830.16	272
839.699	336
849.226	350
858.741	286
868.243	312
877.731	308
887.209	290
896.674	286
906.128	360
915.569	306
924.997	258
934.414	262
943.818	268
953.211	272
962.59	306
971.958	340
981.314	480
990.659	1202
999.99	4274
1009.31	1584
1018.62	460
1027.91	1176
1037.2	1444
1046.47	492
1055.73	404
1064.98	428
1074.22	458
1083.44	426
1092.65	420
1101.86	436
1111.05	360
1120.22	308
1129.39	292
1138.54	294
1147.69	402
1156.82	966
1165.94	518
1175.05	640
1184.14	1216
1193.23	1126
1202.3	1136
1211.36	716
1220.41	484
1229.45	418
1238.48	366
1247.5	368
1256.5	352
1265.49	366
1274.48	344
1283.45	346
1292.41	380
1301.36	430
1310.29	418
1319.22	472
1328.13	530
1337.04	474
1345.93	414
1354.81	366
1363.68	386
1372.54	400
1381.38	338
1390.22	292
1399.05	288
1407.86	280
1416.66	284
1425.46	250
1434.24	352
1443.01	462
1451.77	608
1460.52	388
1469.25	312
1477.98	280
1486.7	280
1495.4	296
1504.1	284
1512.78	264
1521.45	266
1530.11	280
1538.76	274
1547.41	282
1556.03	298
1564.65	306
1573.26	390
1581.86	814
1590.45	596
1599.02	1236
1607.59	1288
1616.14	470
1624.69	344
1633.22	362
1641.75	332
1650.26	344
1658.76	300
1667.26	298
1675.74	290
1684.21	290
1692.67	302
1701.12	292
1709.56	294
1717.99	290
1726.41	294
1734.82	282
1743.22	286
1751.61	300
1759.99	256
1768.36	294
1776.71	282
1785.06	300
1793.4	298
1801.73	282
1810.04	282
1818.35	300
1826.65	288
1834.94	294
1843.21	298
1851.48	304
1859.74	300
1867.98	292
1876.22	288
1884.45	304
1892.67	332
1900.87	310
1909.07	308
1917.26	322
1925.43	316
1933.6	322
1941.76	324
1949.91	318
1958.05	328
1966.17	312
1974.29	294
1982.4	302
1990.5	314
1998.59	300
2006.67	330
2014.74	318
2022.8	332
2030.85	328
2038.89	334
2046.92	334
2054.94	330
2062.95	324
2070.96	320
2078.95	330
2086.93	322
2094.91	342
2102.87	318
2110.83	342
2118.77	322
2126.71	336
2134.63	334
2142.55	348
2150.46	330
2158.35	344
2166.24	328
2174.12	322
2181.99	354
2189.85	340
2197.7	338
2205.55	332
2213.38	332
2221.2	324
2229.02	338
2236.82	332
2244.62	334
2252.4	348
2260.18	356
2267.95	334
2275.71	336
2283.46	354
2291.2	346
2298.93	342
2306.65	350
2314.37	350
2322.07	380
2329.77	314
2337.45	364
2345.13	356
2352.8	348
2360.46	362
2368.11	356
2375.75	356
2383.38	338
2391.01	346
2398.62	334
2406.23	348
2413.82	320
2421.41	372
2428.99	374
2436.56	354
2444.12	350
2449.79	386