File: Mixture_Classification/Jesse_Dataset_v2/Pure Raman/Polystyrene/633nm/ps-ppo-7jan25-1,0000-map3_Y03_X03.txt
182.393	1042
192.79	992
203.174	992
213.542	1076
223.897	1130
234.238	874
244.566	576
254.878	434
265.178	390
275.463	348
285.734	306
295.992	272
306.236	264
316.467	268
326.684	266
336.887	254
347.075	244
357.251	242
367.413	242
377.562	278
387.697	304
397.819	326
407.926	378
418.02	338
428.101	270
438.169	264
448.223	248
458.264	232
468.291	212
478.306	200
488.307	206
498.294	212
508.269	220
518.23	222
528.177	232
538.113	274
548.034	300
557.942	280
567.838	272
577.72	280
587.589	248
597.446	238
607.289	308
617.119	444
626.936	560
636.741	238
646.533	218
656.313	202
666.078	194
675.831	192
685.571	188
695.299	208
705.014	238
714.716	236
724.406	330
734.082	284
743.746	400
753.398	454
763.037	516
772.664	432
782.278	464
791.879	660
801.467	646
811.044	432
820.608	338
830.16	280
839.699	380
849.226	360
858.741	326
868.243	320
877.731	308
887.209	300
896.674	310
906.128	390
915.569	302
924.997	300
934.414	266
943.818	292
953.211	278
962.59	320
971.958	364
981.314	478
990.659	1184
999.99	4150
1009.31	1624
1018.62	482
1027.91	1176
1037.2	1482
1046.47	504
1055.73	434
1064.98	448
1074.22	458
1083.44	452
1092.65	470
1101.86	468
1111.05	370
1120.22	342
1129.39	300
1138.54	336
1147.69	454
1156.82	1008
1165.94	544
1175.05	648
1184.14	1240
1193.23	1156
1202.3	1164
1211.36	730
1220.41	504
1229.45	440
1238.48	398
1247.5	382
1256.5	388
1265.49	366
1274.48	360
1283.45	376
1292.41	394
1301.36	416
1310.29	438
1319.22	458
1328.13	552
1337.04	508
1345.93	432
1354.81	386
1363.68	412
1372.54	414
1381.38	354
1390.22	312
1399.05	312
1407.86	296
1416.66	288
1425.46	284
1434.24	338
1443.01	478
1451.77	636
1460.52	388
1469.25	302
1477.98	310
1486.7	296
1495.4	300
1504.1	284
1512.78	276
1521.45	292
1530.11	300
1538.76	274
1547.41	308
1556.03	300
1564.65	306
1573.26	378
1581.86	798
1590.45	600
1599.02	1228
1607.59	1304
1616.14	468
1624.69	372
1633.22	358
1641.75	352
1650.26	372
1658.76	294
1667.26	320
1675.74	318
1684.21	308
1692.67	306
1701.12	318
1709.56	312
1717.99	300
1726.41	294
1734.82	282
1743.22	296
1751.61	300
1759.99	314
1768.36	284
1776.71	288
1785.06	308
1793.4	320
1801.73	298
1810.04	308
1818.35	310
1826.65	308
1834.94	296
1843.21	310
1851.48	296
1859.74	304
1867.98	316
1876.22	314
1884.45	312
1892.67	302
1900.87	312
1909.07	312
1917.26	312
1925.43	320
1933.6	334
1941.76	314
1949.91	312
1958.05	298
1966.17	316
1974.29	322
1982.4	312
1990.5	310
1998.59	320
2006.67	326
2014.74	316
2022.8	318
2030.85	306
2038.89	336
2046.92	324
2054.94	314
2062.95	342
2070.96	338
2078.95	320
2086.93	314
2094.91	344
2102.87	324
2110.83	334
2118.77	336
2126.71	340
2134.63	338
2142.55	326
2150.46	320
2158.35	336
2166.24	326
2174.12	346
2181.99	322
2189.85	336
2197.7	350
2205.55	330
2213.38	344
2221.2	348
2229.02	338
2236.82	348
2244.62	340
2252.4	342
2260.18	342
2267.95	346
2275.71	356
2283.46	334
2291.2	354
2298.93	350
2306.65	322
2314.37	368
2322.07	340
2329.77	346
2337.45	340
2345.13	346
2352.8	332
2360.46	352
2368.11	342
2375.75	334
2383.38	356
2391.01	350
2398.62	354
2406.23	352
2413.82	374
2421.41	350
2428.99	348
2436.56	356
2444.12	356
2449.79	374