File: Mixture_Classification/Jesse_Dataset_v2/Pure Raman/Polystyrene/633nm/ps-ppo-7jan25-1,0000-map3_Y08_X04.txt
182.393	1082
192.79	964
203.174	988
213.542	1074
223.897	1098
234.238	858
244.566	578
254.878	418
265.178	384
275.463	370
285.734	330
295.992	286
306.236	276
316.467	264
326.684	284
336.887	272
347.075	258
357.251	248
367.413	240
377.562	270
387.697	298
397.819	310
407.926	384
418.02	314
428.101	268
438.169	244
448.223	262
458.264	230
468.291	216
478.306	202
488.307	194
498.294	208
508.269	222
518.23	234
528.177	234
538.113	256
548.034	286
557.942	272
567.838	260
577.72	278
587.589	236
597.446	234
607.289	284
617.119	484
626.936	522
636.741	252
646.533	194
656.313	182
666.078	182
675.831	198
685.571	202
695.299	204
705.014	240
714.716	228
724.406	328
734.082	298
743.746	430
753.398	428
763.037	512
772.664	448
782.278	494
791.879	690
801.467	652
811.044	430
820.608	350
830.16	302
839.699	362
849.226	358
858.741	312
868.243	354
877.731	316
887.209	304
896.674	328
906.128	384
915.569	318
924.997	308
934.414	286
943.818	286
953.211	306
962.59	334
971.958	346
981.314	486
990.659	1172
999.99	4306
1009.31	1654
1018.62	492
1027.91	1248
1037.2	1426
1046.47	516
1055.73	454
1064.98	486
1074.22	482
1083.44	458
1092.65	466
1101.86	438
1111.05	386
1120.22	350
1129.39	302
1138.54	330
1147.69	454
1156.82	1026
1165.94	542
1175.05	690
1184.14	1196
1193.23	1152
1202.3	1218
1211.36	740
1220.41	476
1229.45	442
1238.48	388
1247.5	410
1256.5	392
1265.49	382
1274.48	386
1283.45	394
1292.41	408
1301.36	436
1310.29	474
1319.22	502
1328.13	576
1337.04	516
1345.93	422
1354.81	366
1363.68	424
1372.54	426
1381.38	372
1390.22	298
1399.05	286
1407.86	304
1416.66	292
1425.46	282
1434.24	354
1443.01	508
1451.77	634
1460.52	392
1469.25	300
1477.98	296
1486.7	298
1495.4	328
1504.1	282
1512.78	280
1521.45	274
1530.11	282
1538.76	278
1547.41	294
1556.03	286
1564.65	354
1573.26	386
1581.86	834
1590.45	590
1599.02	1272
1607.59	1304
1616.14	476
1624.69	388
1633.22	332
1641.75	358
1650.26	334
1658.76	294
1667.26	300
1675.74	274
1684.21	310
1692.67	304
1701.12	294
1709.56	288
1717.99	282
1726.41	290
1734.82	294
1743.22	274
1751.61	286
1759.99	266
1768.36	288
1776.71	278
1785.06	288
1793.4	276
1801.73	292
1810.04	312
1818.35	306
1826.65	308
1834.94	276
1843.21	310
1851.48	286
1859.74	300
1867.98	294
1876.22	296
1884.45	300
1892.67	302
1900.87	326
1909.07	308
1917.26	328
1925.43	308
1933.6	322
1941.76	318
1949.91	300
1958.05	310
1966.17	306
1974.29	300
1982.4	310
1990.5	326
1998.59	302
2006.67	310
2014.74	324
2022.8	292
2030.85	320
2038.89	314
2046.92	320
2054.94	324
2062.95	324
2070.96	316
2078.95	286
2086.93	330
2094.91	334
2102.87	328
2110.83	322
2118.77	296
2126.71	334
2134.63	316
2142.55	310
2150.46	326
2158.35	324
2166.24	334
2174.12	338
2181.99	330
2189.85	326
2197.7	342
2205.55	344
2213.38	320
2221.2	346
2229.02	332
2236.82	326
2244.62	324
2252.4	340
2260.18	352
2267.95	336
2275.71	348
2283.46	338
2291.2	324
2298.93	350
2306.65	350
2314.37	354
2322.07	338
2329.77	340
2337.45	346
2345.13	350
2352.8	334
2360.46	334
2368.11	328
2375.75	320
2383.38	344
2391.01	330
2398.62	364
2406.23	342
2413.82	344
2421.41	340
2428.99	352
2436.56	358
2444.12	354
2449.79	360