File: Mixture_Classification/Jesse_Dataset_v2/Pure Raman/Polystyrene/633nm/ps-ppo-7jan25-1,0000-map3_Y03_X06.txt
182.393	1002
192.79	942
203.174	902
213.542	1006
223.897	996
234.238	830
244.566	526
254.878	362
265.178	338
275.463	318
285.734	268
295.992	242
306.236	230
316.467	220
326.684	232
336.887	208
347.075	202
357.251	210
367.413	216
377.562	222
387.697	260
397.819	270
407.926	342
418.02	250
428.101	232
438.169	212
448.223	196
458.264	180
468.291	176
478.306	168
488.307	160
498.294	172
508.269	184
518.23	198
528.177	212
538.113	226
548.034	258
557.942	238
567.838	234
577.72	236
587.589	196
597.446	210
607.289	266
617.119	418
626.936	530
636.741	200
646.533	174
656.313	166
666.078	158
675.831	170
685.571	150
695.299	178
705.014	204
714.716	206
724.406	274
734.082	260
743.746	368
753.398	430
763.037	462
772.664	428
782.278	456
791.879	620
801.467	632
811.044	388
820.608	274
830.16	244
839.699	354
849.226	316
858.741	270
868.243	278
877.731	264
887.209	270
896.674	304
906.128	352
915.569	290
924.997	252
934.414	238
943.818	258
953.211	256
962.59	300
971.958	336
981.314	436
990.659	1166
999.99	4080
1009.31	1534
1018.62	434
1027.91	1184
1037.2	1462
1046.47	474
1055.73	384
1064.98	410
1074.22	420
1083.44	406
1092.65	410
1101.86	408
1111.05	354
1120.22	294
1129.39	258
1138.54	288
1147.69	390
1156.82	968
1165.94	510
1175.05	626
1184.14	1252
1193.23	1110
1202.3	1164
1211.36	720
1220.41	480
1229.45	426
1238.48	372
1247.5	364
1256.5	344
1265.49	358
1274.48	342
1283.45	342
1292.41	362
1301.36	418
1310.29	422
1319.22	446
1328.13	530
1337.04	508
1345.93	402
1354.81	354
1363.68	372
1372.54	378
1381.38	342
1390.22	292
1399.05	262
1407.86	274
1416.66	254
1425.46	248
1434.24	328
1443.01	460
1451.77	582
1460.52	378
1469.25	280
1477.98	264
1486.7	276
1495.4	296
1504.1	256
1512.78	250
1521.45	270
1530.11	262
1538.76	280
1547.41	268
1556.03	242
1564.65	306
1573.26	372
1581.86	794
1590.45	596
1599.02	1200
1607.59	1254
1616.14	454
1624.69	358
1633.22	316
1641.75	306
1650.26	352
1658.76	306
1667.26	284
1675.74	290
1684.21	296
1692.67	288
1701.12	276
1709.56	264
1717.99	260
1726.41	268
1734.82	278
1743.22	264
1751.61	284
1759.99	264
1768.36	270
1776.71	262
1785.06	266
1793.4	278
1801.73	276
1810.04	296
1818.35	300
1826.65	294
1834.94	286
1843.21	292
1851.48	270
1859.74	306
1867.98	264
1876.22	296
1884.45	286
1892.67	292
1900.87	286
1909.07	306
1917.26	300
1925.43	308
1933.6	292
1941.76	284
1949.91	314
1958.05	272
1966.17	290
1974.29	292
1982.4	306
1990.5	288
1998.59	298
2006.67	290
2014.74	300
2022.8	302
2030.85	312
2038.89	304
2046.92	296
2054.94	304
2062.95	316
2070.96	318
2078.95	308
2086.93	314
2094.91	332
2102.87	324
2110.83	318
2118.77	316
2126.71	330
2134.63	320
2142.55	330
2150.46	316
2158.35	344
2166.24	338
2174.12	340
2181.99	340
2189.85	320
2197.7	344
2205.55	346
2213.38	336
2221.2	314
2229.02	328
2236.82	330
2244.62	340
2252.4	318
2260.18	340
2267.95	344
2275.71	348
2283.46	344
2291.2	334
2298.93	342
2306.65	342
2314.37	354
2322.07	358
2329.77	334
2337.45	336
2345.13	348
2352.8	342
2360.46	348
2368.11	340
2375.75	348
2383.38	366
2391.01	348
2398.62	346
2406.23	346
2413.82	334
2421.41	354
2428.99	344
2436.56	352
2444.12	336
2449.79	374