File: Mixture_Classification/Jesse_Dataset_v2/Pure Raman/Polystyrene/633nm/ps-ppo-7jan25-1,0000-map3_Y09_X03.txt
182.393	1042
192.79	950
203.174	938
213.542	1018
223.897	1062
234.238	850
244.566	506
254.878	376
265.178	326
275.463	302
285.734	286
295.992	238
306.236	206
316.467	232
326.684	220
336.887	214
347.075	234
357.251	202
367.413	222
377.562	230
387.697	246
397.819	274
407.926	334
418.02	274
428.101	216
438.169	208
448.223	206
458.264	172
468.291	164
478.306	170
488.307	162
498.294	160
508.269	176
518.23	170
528.177	212
538.113	226
548.034	250
557.942	246
567.838	218
577.72	242
587.589	198
597.446	212
607.289	272
617.119	394
626.936	520
636.741	198
646.533	164
656.313	160
666.078	142
675.831	166
685.571	158
695.299	162
705.014	202
714.716	198
724.406	286
734.082	260
743.746	382
753.398	412
763.037	458
772.664	434
782.278	442
791.879	622
801.467	612
811.044	392
820.608	286
830.16	254
839.699	344
849.226	326
858.741	288
868.243	264
877.731	266
887.209	256
896.674	290
906.128	340
915.569	290
924.997	244
934.414	216
943.818	236
953.211	254
962.59	286
971.958	300
981.314	428
990.659	1132
999.99	4238
1009.31	1554
1018.62	434
1027.91	1168
1037.2	1400
1046.47	470
1055.73	386
1064.98	402
1074.22	426
1083.44	404
1092.65	390
1101.86	400
1111.05	310
1120.22	260
1129.39	248
1138.54	278
1147.69	388
1156.82	968
1165.94	496
1175.05	612
1184.14	1188
1193.23	1114
1202.3	1114
1211.36	692
1220.41	464
1229.45	422
1238.48	346
1247.5	346
1256.5	348
1265.49	322
1274.48	328
1283.45	344
1292.41	364
1301.36	394
1310.29	424
1319.22	466
1328.13	526
1337.04	470
1345.93	386
1354.81	336
1363.68	354
1372.54	352
1381.38	312
1390.22	250
1399.05	260
1407.86	264
1416.66	236
1425.46	258
1434.24	310
1443.01	464
1451.77	608
1460.52	358
1469.25	276
1477.98	248
1486.7	246
1495.4	284
1504.1	254
1512.78	244
1521.45	242
1530.11	270
1538.76	276
1547.41	244
1556.03	286
1564.65	284
1573.26	362
1581.86	824
1590.45	592
1599.02	1224
1607.59	1300
1616.14	478
1624.69	342
1633.22	316
1641.75	312
1650.26	336
1658.76	282
1667.26	272
1675.74	274
1684.21	278
1692.67	274
1701.12	240
1709.56	272
1717.99	270
1726.41	274
1734.82	268
1743.22	264
1751.61	276
1759.99	260
1768.36	268
1776.71	264
1785.06	254
1793.4	282
1801.73	272
1810.04	298
1818.35	270
1826.65	268
1834.94	268
1843.21	268
1851.48	270
1859.74	268
1867.98	282
1876.22	288
1884.45	284
1892.67	290
1900.87	278
1909.07	282
1917.26	282
1925.43	288
1933.6	296
1941.76	294
1949.91	286
1958.05	296
1966.17	292
1974.29	296
1982.4	276
1990.5	290
1998.59	296
2006.67	296
2014.74	290
2022.8	288
2030.85	296
2038.89	314
2046.92	304
2054.94	294
2062.95	300
2070.96	316
2078.95	304
2086.93	308
2094.91	304
2102.87	302
2110.83	306
2118.77	318
2126.71	312
2134.63	306
2142.55	308
2150.46	310
2158.35	302
2166.24	316
2174.12	304
2181.99	314
2189.85	340
2197.7	328
2205.55	308
2213.38	312
2221.2	328
2229.02	320
2236.82	304
2244.62	328
2252.4	318
2260.18	298
2267.95	308
2275.71	316
2283.46	324
2291.2	318
2298.93	324
2306.65	324
2314.37	324
2322.07	330
2329.77	320
2337.45	318
2345.13	328
2352.8	338
2360.46	346
2368.11	332
2375.75	328
2383.38	348
2391.01	334
2398.62	332
2406.23	336
2413.82	352
2421.41	332
2428.99	346
2436.56	344
2444.12	338
2449.79	350