File: Mixture_Classification/Jesse_Dataset_v2/Pure Raman/Polystyrene/633nm/ps-ppo-7jan25-1,0000-map3_Y01_X05.txt
182.393	1032
192.79	920
203.174	952
213.542	1072
223.897	1088
234.238	844
244.566	538
254.878	394
265.178	356
275.463	322
285.734	302
295.992	260
306.236	236
316.467	248
326.684	250
336.887	256
347.075	228
357.251	220
367.413	228
377.562	250
387.697	264
397.819	270
407.926	352
418.02	298
428.101	252
438.169	242
448.223	234
458.264	198
468.291	200
478.306	182
488.307	192
498.294	188
508.269	206
518.23	212
528.177	218
538.113	256
548.034	264
557.942	268
567.838	260
577.72	254
587.589	226
597.446	224
607.289	268
617.119	400
626.936	522
636.741	230
646.533	184
656.313	166
666.078	168
675.831	162
685.571	174
695.299	190
705.014	224
714.716	226
724.406	302
734.082	280
743.746	356
753.398	420
763.037	484
772.664	422
782.278	456
791.879	604
801.467	636
811.044	390
820.608	300
830.16	268
839.699	372
849.226	348
858.741	300
868.243	298
877.731	302
887.209	288
896.674	284
906.128	342
915.569	292
924.997	262
934.414	242
943.818	256
953.211	264
962.59	312
971.958	320
981.314	448
990.659	1170
999.99	4134
1009.31	1584
1018.62	460
1027.91	1168
1037.2	1424
1046.47	476
1055.73	382
1064.98	416
1074.22	426
1083.44	440
1092.65	408
1101.86	432
1111.05	348
1120.22	304
1129.39	270
1138.54	298
1147.69	422
1156.82	972
1165.94	536
1175.05	640
1184.14	1198
1193.23	1124
1202.3	1164
1211.36	728
1220.41	486
1229.45	432
1238.48	356
1247.5	366
1256.5	340
1265.49	360
1274.48	342
1283.45	368
1292.41	394
1301.36	418
1310.29	444
1319.22	494
1328.13	512
1337.04	482
1345.93	398
1354.81	370
1363.68	392
1372.54	400
1381.38	358
1390.22	300
1399.05	286
1407.86	286
1416.66	276
1425.46	274
1434.24	334
1443.01	512
1451.77	606
1460.52	384
1469.25	318
1477.98	292
1486.7	308
1495.4	300
1504.1	276
1512.78	274
1521.45	298
1530.11	294
1538.76	282
1547.41	286
1556.03	294
1564.65	318
1573.26	416
1581.86	804
1590.45	620
1599.02	1228
1607.59	1348
1616.14	498
1624.69	376
1633.22	342
1641.75	364
1650.26	358
1658.76	312
1667.26	304
1675.74	320
1684.21	306
1692.67	302
1701.12	310
1709.56	312
1717.99	304
1726.41	310
1734.82	312
1743.22	306
1751.61	306
1759.99	286
1768.36	298
1776.71	302
1785.06	300
1793.4	296
1801.73	288
1810.04	324
1818.35	308
1826.65	310
1834.94	312
1843.21	296
1851.48	306
1859.74	296
1867.98	294
1876.22	316
1884.45	306
1892.67	312
1900.87	320
1909.07	328
1917.26	320
1925.43	308
1933.6	314
1941.76	318
1949.91	316
1958.05	326
1966.17	306
1974.29	328
1982.4	318
1990.5	304
1998.59	300
2006.67	322
2014.74	324
2022.8	320
2030.85	332
2038.89	324
2046.92	334
2054.94	334
2062.95	336
2070.96	344
2078.95	330
2086.93	318
2094.91	334
2102.87	342
2110.83	324
2118.77	334
2126.71	330
2134.63	328
2142.55	304
2150.46	344
2158.35	316
2166.24	342
2174.12	348
2181.99	332
2189.85	334
2197.7	352
2205.55	340
2213.38	336
2221.2	322
2229.02	330
2236.82	360
2244.62	348
2252.4	352
2260.18	342
2267.95	372
2275.71	350
2283.46	362
2291.2	356
2298.93	344
2306.65	348
2314.37	364
2322.07	344
2329.77	338
2337.45	354
2345.13	358
2352.8	356
2360.46	356
2368.11	364
2375.75	368
2383.38	348
2391.01	356
2398.62	364
2406.23	352
2413.82	362
2421.41	360
2428.99	344
2436.56	372
2444.12	370
2449.79	388