File: Mixture_Classification/Jesse_Dataset_v2/Pure Raman/Polystyrene/633nm/ps-ppo-7jan25-1,0000-map3_Y03_X05.txt
182.393	1094
192.79	978
203.174	966
213.542	1054
223.897	1124
234.238	880
244.566	560
254.878	414
265.178	378
275.463	352
285.734	314
295.992	284
306.236	266
316.467	258
326.684	256
336.887	258
347.075	242
357.251	236
367.413	224
377.562	274
387.697	298
397.819	308
407.926	372
418.02	316
428.101	254
438.169	242
448.223	228
458.264	210
468.291	208
478.306	202
488.307	184
498.294	200
508.269	196
518.23	216
528.177	224
538.113	276
548.034	252
557.942	252
567.838	254
577.72	256
587.589	226
597.446	212
607.289	256
617.119	418
626.936	540
636.741	230
646.533	188
656.313	174
666.078	182
675.831	202
685.571	170
695.299	196
705.014	216
714.716	232
724.406	310
734.082	286
743.746	404
753.398	440
763.037	486
772.664	436
782.278	464
791.879	664
801.467	636
811.044	418
820.608	322
830.16	296
839.699	376
849.226	368
858.741	324
868.243	332
877.731	330
887.209	324
896.674	304
906.128	382
915.569	340
924.997	288
934.414	284
943.818	316
953.211	306
962.59	358
971.958	372
981.314	500
990.659	1202
999.99	4302
1009.31	1620
1018.62	528
1027.91	1224
1037.2	1502
1046.47	538
1055.73	456
1064.98	460
1074.22	502
1083.44	494
1092.65	458
1101.86	466
1111.05	396
1120.22	354
1129.39	320
1138.54	330
1147.69	452
1156.82	1006
1165.94	532
1175.05	680
1184.14	1226
1193.23	1174
1202.3	1180
1211.36	752
1220.41	538
1229.45	470
1238.48	406
1247.5	382
1256.5	384
1265.49	380
1274.48	360
1283.45	380
1292.41	400
1301.36	406
1310.29	458
1319.22	474
1328.13	540
1337.04	494
1345.93	406
1354.81	384
1363.68	382
1372.54	394
1381.38	362
1390.22	302
1399.05	300
1407.86	280
1416.66	292
1425.46	286
1434.24	348
1443.01	486
1451.77	626
1460.52	382
1469.25	296
1477.98	278
1486.7	276
1495.4	312
1504.1	276
1512.78	272
1521.45	280
1530.11	290
1538.76	288
1547.41	278
1556.03	298
1564.65	308
1573.26	374
1581.86	806
1590.45	604
1599.02	1236
1607.59	1318
1616.14	488
1624.69	354
1633.22	330
1641.75	332
1650.26	356
1658.76	300
1667.26	290
1675.74	280
1684.21	274
1692.67	276
1701.12	298
1709.56	264
1717.99	274
1726.41	280
1734.82	286
1743.22	278
1751.61	282
1759.99	286
1768.36	290
1776.71	292
1785.06	308
1793.4	286
1801.73	282
1810.04	282
1818.35	286
1826.65	292
1834.94	278
1843.21	280
1851.48	286
1859.74	296
1867.98	286
1876.22	288
1884.45	270
1892.67	306
1900.87	304
1909.07	304
1917.26	300
1925.43	292
1933.6	288
1941.76	288
1949.91	298
1958.05	296
1966.17	282
1974.29	312
1982.4	292
1990.5	300
1998.59	306
2006.67	292
2014.74	330
2022.8	314
2030.85	296
2038.89	316
2046.92	320
2054.94	306
2062.95	320
2070.96	308
2078.95	320
2086.93	322
2094.91	308
2102.87	310
2110.83	330
2118.77	328
2126.71	328
2134.63	300
2142.55	326
2150.46	336
2158.35	316
2166.24	334
2174.12	310
2181.99	316
2189.85	326
2197.7	328
2205.55	334
2213.38	336
2221.2	338
2229.02	326
2236.82	330
2244.62	336
2252.4	348
2260.18	336
2267.95	338
2275.71	322
2283.46	340
2291.2	334
2298.93	360
2306.65	340
2314.37	344
2322.07	354
2329.77	324
2337.45	334
2345.13	362
2352.8	344
2360.46	348
2368.11	348
2375.75	336
2383.38	336
2391.01	340
2398.62	358
2406.23	356
2413.82	348
2421.41	350
2428.99	366
2436.56	364
2444.12	356
2449.79	336