File: Mixture_Classification/Jesse_Dataset_v2/Pure Raman/Polystyrene/633nm/ps-ppo-7jan25-1,0000-map3_Y06_X08.txt
182.393	1094
192.79	1034
203.174	988
213.542	1084
223.897	1092
234.238	878
244.566	570
254.878	408
265.178	390
275.463	356
285.734	328
295.992	286
306.236	306
316.467	274
326.684	282
336.887	266
347.075	270
357.251	260
367.413	270
377.562	284
387.697	310
397.819	320
407.926	356
418.02	310
428.101	278
438.169	256
448.223	248
458.264	234
468.291	222
478.306	208
488.307	206
498.294	220
508.269	230
518.23	222
528.177	260
538.113	284
548.034	274
557.942	292
567.838	282
577.72	270
587.589	238
597.446	236
607.289	264
617.119	446
626.936	548
636.741	238
646.533	204
656.313	204
666.078	180
675.831	200
685.571	198
695.299	188
705.014	238
714.716	234
724.406	314
734.082	290
743.746	392
753.398	448
763.037	496
772.664	470
782.278	470
791.879	666
801.467	666
811.044	422
820.608	316
830.16	292
839.699	380
849.226	352
858.741	306
868.243	318
877.731	318
887.209	312
896.674	306
906.128	404
915.569	334
924.997	286
934.414	292
943.818	286
953.211	304
962.59	322
971.958	354
981.314	494
990.659	1190
999.99	4240
1009.31	1554
1018.62	484
1027.91	1210
1037.2	1466
1046.47	528
1055.73	446
1064.98	484
1074.22	464
1083.44	474
1092.65	458
1101.86	440
1111.05	406
1120.22	358
1129.39	314
1138.54	350
1147.69	478
1156.82	1020
1165.94	558
1175.05	680
1184.14	1276
1193.23	1184
1202.3	1186
1211.36	768
1220.41	520
1229.45	480
1238.48	408
1247.5	430
1256.5	410
1265.49	424
1274.48	382
1283.45	388
1292.41	434
1301.36	450
1310.29	484
1319.22	524
1328.13	596
1337.04	524
1345.93	458
1354.81	450
1363.68	424
1372.54	416
1381.38	392
1390.22	320
1399.05	306
1407.86	332
1416.66	288
1425.46	316
1434.24	366
1443.01	532
1451.77	654
1460.52	432
1469.25	330
1477.98	328
1486.7	316
1495.4	340
1504.1	308
1512.78	308
1521.45	306
1530.11	286
1538.76	302
1547.41	300
1556.03	314
1564.65	344
1573.26	394
1581.86	818
1590.45	614
1599.02	1214
1607.59	1288
1616.14	500
1624.69	392
1633.22	366
1641.75	358
1650.26	344
1658.76	322
1667.26	314
1675.74	322
1684.21	308
1692.67	302
1701.12	304
1709.56	288
1717.99	294
1726.41	308
1734.82	304
1743.22	316
1751.61	276
1759.99	306
1768.36	318
1776.71	308
1785.06	310
1793.4	320
1801.73	310
1810.04	316
1818.35	296
1826.65	298
1834.94	300
1843.21	288
1851.48	306
1859.74	290
1867.98	298
1876.22	316
1884.45	302
1892.67	336
1900.87	326
1909.07	316
1917.26	320
1925.43	324
1933.6	290
1941.76	322
1949.91	332
1958.05	342
1966.17	326
1974.29	312
1982.4	306
1990.5	304
1998.59	322
2006.67	318
2014.74	324
2022.8	306
2030.85	304
2038.89	338
2046.92	342
2054.94	332
2062.95	328
2070.96	344
2078.95	334
2086.93	328
2094.91	328
2102.87	342
2110.83	320
2118.77	326
2126.71	332
2134.63	346
2142.55	350
2150.46	336
2158.35	332
2166.24	326
2174.12	338
2181.99	328
2189.85	346
2197.7	360
2205.55	350
2213.38	354
2221.2	358
2229.02	346
2236.82	330
2244.62	346
2252.4	348
2260.18	364
2267.95	352
2275.71	348
2283.46	344
2291.2	350
2298.93	340
2306.65	356
2314.37	346
2322.07	362
2329.77	348
2337.45	362
2345.13	360
2352.8	362
2360.46	354
2368.11	338
2375.75	358
2383.38	354
2391.01	348
2398.62	380
2406.23	358
2413.82	374
2421.41	356
2428.99	364
2436.56	354
2444.12	370
2449.79	376