File: Mixture_Classification/Jesse_Dataset_v2/Pure Raman/Polystyrene/633nm/ps-ppo-7jan25-1,0000-map3_Y02_X05.txt
182.393	1064
192.79	1028
203.174	1010
213.542	1048
223.897	1114
234.238	858
244.566	564
254.878	416
265.178	412
275.463	356
285.734	336
295.992	278
306.236	278
316.467	278
326.684	278
336.887	278
347.075	274
357.251	246
367.413	262
377.562	254
387.697	306
397.819	330
407.926	386
418.02	322
428.101	266
438.169	270
448.223	218
458.264	226
468.291	218
478.306	204
488.307	206
498.294	216
508.269	236
518.23	216
528.177	236
538.113	280
548.034	276
557.942	274
567.838	282
577.72	288
587.589	248
597.446	244
607.289	282
617.119	442
626.936	570
636.741	240
646.533	206
656.313	204
666.078	194
675.831	194
685.571	176
695.299	218
705.014	264
714.716	232
724.406	318
734.082	308
743.746	406
753.398	420
763.037	526
772.664	454
782.278	480
791.879	668
801.467	626
811.044	440
820.608	324
830.16	296
839.699	366
849.226	370
858.741	338
868.243	304
877.731	322
887.209	302
896.674	290
906.128	390
915.569	334
924.997	308
934.414	280
943.818	286
953.211	280
962.59	348
971.958	336
981.314	510
990.659	1212
999.99	4198
1009.31	1620
1018.62	492
1027.91	1178
1037.2	1482
1046.47	540
1055.73	448
1064.98	452
1074.22	470
1083.44	474
1092.65	448
1101.86	452
1111.05	384
1120.22	350
1129.39	310
1138.54	342
1147.69	464
1156.82	988
1165.94	568
1175.05	694
1184.14	1252
1193.23	1190
1202.3	1188
1211.36	770
1220.41	530
1229.45	472
1238.48	424
1247.5	380
1256.5	386
1265.49	408
1274.48	384
1283.45	414
1292.41	442
1301.36	464
1310.29	498
1319.22	518
1328.13	572
1337.04	566
1345.93	444
1354.81	426
1363.68	430
1372.54	434
1381.38	390
1390.22	348
1399.05	316
1407.86	306
1416.66	316
1425.46	290
1434.24	394
1443.01	540
1451.77	674
1460.52	436
1469.25	344
1477.98	312
1486.7	330
1495.4	348
1504.1	342
1512.78	306
1521.45	316
1530.11	314
1538.76	326
1547.41	320
1556.03	324
1564.65	350
1573.26	390
1581.86	844
1590.45	634
1599.02	1244
1607.59	1360
1616.14	526
1624.69	380
1633.22	348
1641.75	356
1650.26	362
1658.76	334
1667.26	320
1675.74	320
1684.21	328
1692.67	310
1701.12	286
1709.56	324
1717.99	334
1726.41	304
1734.82	312
1743.22	310
1751.61	324
1759.99	312
1768.36	332
1776.71	306
1785.06	318
1793.4	314
1801.73	326
1810.04	330
1818.35	318
1826.65	328
1834.94	312
1843.21	320
1851.48	302
1859.74	320
1867.98	326
1876.22	332
1884.45	322
1892.67	332
1900.87	332
1909.07	326
1917.26	338
1925.43	344
1933.6	336
1941.76	332
1949.91	322
1958.05	340
1966.17	318
1974.29	334
1982.4	318
1990.5	332
1998.59	300
2006.67	330
2014.74	322
2022.8	330
2030.85	326
2038.89	340
2046.92	356
2054.94	338
2062.95	336
2070.96	338
2078.95	324
2086.93	346
2094.91	330
2102.87	338
2110.83	344
2118.77	342
2126.71	346
2134.63	346
2142.55	334
2150.46	332
2158.35	322
2166.24	356
2174.12	342
2181.99	348
2189.85	368
2197.7	354
2205.55	348
2213.38	344
2221.2	362
2229.02	328
2236.82	358
2244.62	348
2252.4	356
2260.18	364
2267.95	352
2275.71	366
2283.46	358
2291.2	370
2298.93	354
2306.65	362
2314.37	358
2322.07	364
2329.77	362
2337.45	344
2345.13	372
2352.8	352
2360.46	378
2368.11	372
2375.75	338
2383.38	368
2391.01	350
2398.62	360
2406.23	362
2413.82	372
2421.41	378
2428.99	376
2436.56	380
2444.12	372
2449.79	384