File: Mixture_Classification/Jesse_Dataset_v2/Pure Raman/Polystyrene/633nm/ps-ppo-7jan25-1,0000-map3_Y10_X01.txt
182.393	1030
192.79	918
203.174	938
213.542	1038
223.897	1086
234.238	800
244.566	500
254.878	366
265.178	320
275.463	306
285.734	268
295.992	234
306.236	226
316.467	238
326.684	230
336.887	228
347.075	212
357.251	186
367.413	202
377.562	228
387.697	250
397.819	260
407.926	336
418.02	256
428.101	220
438.169	218
448.223	194
458.264	174
468.291	168
478.306	168
488.307	166
498.294	158
508.269	178
518.23	176
528.177	198
538.113	238
548.034	234
557.942	228
567.838	230
577.72	236
587.589	210
597.446	206
607.289	244
617.119	412
626.936	516
636.741	232
646.533	170
656.313	156
666.078	166
675.831	176
685.571	164
695.299	166
705.014	206
714.716	200
724.406	280
734.082	270
743.746	368
753.398	404
763.037	484
772.664	404
782.278	422
791.879	618
801.467	602
811.044	360
820.608	268
830.16	244
839.699	336
849.226	320
858.741	290
868.243	274
877.731	260
887.209	246
896.674	266
906.128	340
915.569	272
924.997	236
934.414	230
943.818	232
953.211	266
962.59	296
971.958	332
981.314	454
990.659	1166
999.99	4298
1009.31	1536
1018.62	458
1027.91	1182
1037.2	1426
1046.47	480
1055.73	378
1064.98	394
1074.22	410
1083.44	384
1092.65	400
1101.86	398
1111.05	312
1120.22	300
1129.39	254
1138.54	292
1147.69	402
1156.82	932
1165.94	498
1175.05	614
1184.14	1176
1193.23	1142
1202.3	1158
1211.36	728
1220.41	444
1229.45	412
1238.48	376
1247.5	366
1256.5	352
1265.49	364
1274.48	324
1283.45	334
1292.41	346
1301.36	374
1310.29	412
1319.22	440
1328.13	524
1337.04	476
1345.93	388
1354.81	356
1363.68	358
1372.54	368
1381.38	302
1390.22	250
1399.05	244
1407.86	266
1416.66	246
1425.46	268
1434.24	314
1443.01	462
1451.77	584
1460.52	376
1469.25	268
1477.98	260
1486.7	256
1495.4	294
1504.1	250
1512.78	242
1521.45	256
1530.11	268
1538.76	258
1547.41	266
1556.03	272
1564.65	308
1573.26	372
1581.86	816
1590.45	564
1599.02	1212
1607.59	1250
1616.14	464
1624.69	332
1633.22	302
1641.75	320
1650.26	322
1658.76	286
1667.26	276
1675.74	296
1684.21	268
1692.67	274
1701.12	268
1709.56	262
1717.99	260
1726.41	288
1734.82	274
1743.22	264
1751.61	276
1759.99	262
1768.36	268
1776.71	266
1785.06	274
1793.4	280
1801.73	264
1810.04	274
1818.35	270
1826.65	278
1834.94	280
1843.21	262
1851.48	280
1859.74	274
1867.98	264
1876.22	284
1884.45	274
1892.67	274
1900.87	284
1909.07	284
1917.26	286
1925.43	298
1933.6	308
1941.76	270
1949.91	294
1958.05	280
1966.17	298
1974.29	276
1982.4	278
1990.5	280
1998.59	306
2006.67	312
2014.74	288
2022.8	288
2030.85	306
2038.89	290
2046.92	312
2054.94	304
2062.95	312
2070.96	330
2078.95	298
2086.93	306
2094.91	304
2102.87	310
2110.83	312
2118.77	324
2126.71	322
2134.63	306
2142.55	328
2150.46	306
2158.35	300
2166.24	322
2174.12	296
2181.99	302
2189.85	304
2197.7	314
2205.55	320
2213.38	324
2221.2	326
2229.02	320
2236.82	304
2244.62	298
2252.4	308
2260.18	314
2267.95	314
2275.71	318
2283.46	326
2291.2	320
2298.93	332
2306.65	322
2314.37	326
2322.07	324
2329.77	334
2337.45	320
2345.13	332
2352.8	338
2360.46	334
2368.11	332
2375.75	352
2383.38	318
2391.01	334
2398.62	342
2406.23	354
2413.82	344
2421.41	334
2428.99	336
2436.56	360
2444.12	334
2449.79	338