File: Mixture_Classification/Jesse_Dataset_v2/Pure Raman/Polystyrene/633nm/ps-ppo-7jan25-1,0000-map3_Y04_X02.txt
182.393	1038
192.79	972
203.174	950
213.542	1034
223.897	1106
234.238	840
244.566	526
254.878	394
265.178	356
275.463	346
285.734	310
295.992	266
306.236	268
316.467	252
326.684	248
336.887	252
347.075	234
357.251	232
367.413	228
377.562	260
387.697	290
397.819	314
407.926	380
418.02	284
428.101	252
438.169	256
448.223	238
458.264	198
468.291	196
478.306	204
488.307	206
498.294	188
508.269	208
518.23	226
528.177	240
538.113	292
548.034	282
557.942	266
567.838	274
577.72	288
587.589	220
597.446	226
607.289	292
617.119	452
626.936	548
636.741	262
646.533	210
656.313	214
666.078	200
675.831	198
685.571	200
695.299	212
705.014	262
714.716	244
724.406	320
734.082	318
743.746	410
753.398	442
763.037	504
772.664	436
782.278	468
791.879	692
801.467	662
811.044	432
820.608	312
830.16	298
839.699	374
849.226	354
858.741	324
868.243	324
877.731	338
887.209	306
896.674	334
906.128	390
915.569	360
924.997	290
934.414	298
943.818	300
953.211	304
962.59	332
971.958	344
981.314	494
990.659	1198
999.99	4270
1009.31	1602
1018.62	472
1027.91	1210
1037.2	1462
1046.47	520
1055.73	432
1064.98	466
1074.22	450
1083.44	434
1092.65	442
1101.86	434
1111.05	368
1120.22	324
1129.39	282
1138.54	342
1147.69	440
1156.82	992
1165.94	560
1175.05	624
1184.14	1270
1193.23	1138
1202.3	1134
1211.36	746
1220.41	502
1229.45	432
1238.48	398
1247.5	386
1256.5	376
1265.49	386
1274.48	352
1283.45	344
1292.41	404
1301.36	412
1310.29	428
1319.22	502
1328.13	540
1337.04	504
1345.93	396
1354.81	366
1363.68	388
1372.54	402
1381.38	346
1390.22	306
1399.05	288
1407.86	310
1416.66	262
1425.46	280
1434.24	342
1443.01	504
1451.77	598
1460.52	408
1469.25	292
1477.98	294
1486.7	284
1495.4	294
1504.1	268
1512.78	260
1521.45	284
1530.11	282
1538.76	278
1547.41	294
1556.03	300
1564.65	330
1573.26	394
1581.86	814
1590.45	608
1599.02	1240
1607.59	1294
1616.14	484
1624.69	360
1633.22	312
1641.75	318
1650.26	342
1658.76	316
1667.26	304
1675.74	310
1684.21	296
1692.67	310
1701.12	292
1709.56	298
1717.99	288
1726.41	274
1734.82	282
1743.22	296
1751.61	290
1759.99	300
1768.36	296
1776.71	288
1785.06	282
1793.4	292
1801.73	306
1810.04	302
1818.35	310
1826.65	306
1834.94	298
1843.21	284
1851.48	282
1859.74	306
1867.98	308
1876.22	298
1884.45	300
1892.67	294
1900.87	310
1909.07	310
1917.26	306
1925.43	298
1933.6	308
1941.76	326
1949.91	324
1958.05	344
1966.17	320
1974.29	312
1982.4	322
1990.5	306
1998.59	324
2006.67	316
2014.74	320
2022.8	320
2030.85	322
2038.89	328
2046.92	336
2054.94	324
2062.95	306
2070.96	314
2078.95	340
2086.93	330
2094.91	320
2102.87	310
2110.83	324
2118.77	326
2126.71	330
2134.63	310
2142.55	312
2150.46	332
2158.35	326
2166.24	328
2174.12	314
2181.99	328
2189.85	342
2197.7	336
2205.55	336
2213.38	344
2221.2	346
2229.02	316
2236.82	346
2244.62	336
2252.4	340
2260.18	332
2267.95	328
2275.71	328
2283.46	334
2291.2	342
2298.93	350
2306.65	366
2314.37	344
2322.07	368
2329.77	352
2337.45	358
2345.13	346
2352.8	364
2360.46	352
2368.11	350
2375.75	330
2383.38	362
2391.01	348
2398.62	352
2406.23	352
2413.82	340
2421.41	382
2428.99	348
2436.56	366
2444.12	366
2449.79	348