File: Mixture_Classification/Jesse_Dataset_v2/Pure Raman/Polystyrene/633nm/ps-ppo-7jan25-1,0000-map3_Y02_X00.txt
182.393	1074
192.79	938
203.174	972
213.542	1066
223.897	1124
234.238	846
244.566	528
254.878	390
265.178	350
275.463	336
285.734	286
295.992	258
306.236	240
316.467	240
326.684	246
336.887	248
347.075	242
357.251	230
367.413	228
377.562	250
387.697	266
397.819	304
407.926	350
418.02	298
428.101	262
438.169	234
448.223	242
458.264	198
468.291	196
478.306	182
488.307	184
498.294	192
508.269	200
518.23	210
528.177	228
538.113	232
548.034	266
557.942	254
567.838	258
577.72	240
587.589	206
597.446	216
607.289	258
617.119	418
626.936	534
636.741	234
646.533	180
656.313	170
666.078	168
675.831	180
685.571	176
695.299	172
705.014	214
714.716	216
724.406	302
734.082	262
743.746	394
753.398	440
763.037	488
772.664	416
782.278	446
791.879	650
801.467	630
811.044	432
820.608	306
830.16	270
839.699	372
849.226	358
858.741	288
868.243	286
877.731	304
887.209	278
896.674	298
906.128	344
915.569	304
924.997	282
934.414	266
943.818	264
953.211	286
962.59	288
971.958	320
981.314	468
990.659	1118
999.99	4174
1009.31	1636
1018.62	460
1027.91	1196
1037.2	1456
1046.47	456
1055.73	412
1064.98	408
1074.22	440
1083.44	416
1092.65	422
1101.86	418
1111.05	336
1120.22	322
1129.39	272
1138.54	304
1147.69	406
1156.82	950
1165.94	538
1175.05	630
1184.14	1198
1193.23	1132
1202.3	1166
1211.36	748
1220.41	472
1229.45	434
1238.48	380
1247.5	376
1256.5	354
1265.49	348
1274.48	334
1283.45	344
1292.41	354
1301.36	414
1310.29	444
1319.22	490
1328.13	568
1337.04	484
1345.93	406
1354.81	352
1363.68	410
1372.54	378
1381.38	354
1390.22	308
1399.05	290
1407.86	292
1416.66	250
1425.46	262
1434.24	326
1443.01	472
1451.77	620
1460.52	392
1469.25	298
1477.98	288
1486.7	278
1495.4	320
1504.1	284
1512.78	262
1521.45	264
1530.11	272
1538.76	300
1547.41	274
1556.03	292
1564.65	318
1573.26	382
1581.86	794
1590.45	616
1599.02	1208
1607.59	1322
1616.14	478
1624.69	378
1633.22	342
1641.75	340
1650.26	344
1658.76	316
1667.26	296
1675.74	278
1684.21	312
1692.67	288
1701.12	284
1709.56	278
1717.99	270
1726.41	276
1734.82	286
1743.22	286
1751.61	280
1759.99	292
1768.36	286
1776.71	296
1785.06	296
1793.4	314
1801.73	288
1810.04	294
1818.35	274
1826.65	300
1834.94	312
1843.21	288
1851.48	290
1859.74	292
1867.98	294
1876.22	276
1884.45	304
1892.67	302
1900.87	284
1909.07	308
1917.26	316
1925.43	302
1933.6	320
1941.76	306
1949.91	310
1958.05	312
1966.17	312
1974.29	314
1982.4	308
1990.5	296
1998.59	292
2006.67	338
2014.74	316
2022.8	318
2030.85	296
2038.89	318
2046.92	314
2054.94	302
2062.95	322
2070.96	318
2078.95	336
2086.93	322
2094.91	320
2102.87	332
2110.83	320
2118.77	306
2126.71	310
2134.63	322
2142.55	338
2150.46	340
2158.35	360
2166.24	332
2174.12	328
2181.99	326
2189.85	310
2197.7	350
2205.55	322
2213.38	332
2221.2	324
2229.02	328
2236.82	342
2244.62	328
2252.4	344
2260.18	336
2267.95	346
2275.71	356
2283.46	336
2291.2	352
2298.93	360
2306.65	336
2314.37	346
2322.07	358
2329.77	342
2337.45	342
2345.13	352
2352.8	356
2360.46	334
2368.11	336
2375.75	344
2383.38	374
2391.01	332
2398.62	350
2406.23	350
2413.82	350
2421.41	364
2428.99	356
2436.56	358
2444.12	388
2449.79	382