File: Mixture_Classification/Jesse_Dataset_v2/Pure Raman/Polystyrene/633nm/ps-ppo-7jan25-1,0000-map3_Y02_X10.txt
182.393	990
192.79	918
203.174	916
213.542	1018
223.897	1062
234.238	810
244.566	500
254.878	378
265.178	312
275.463	322
285.734	268
295.992	228
306.236	212
316.467	224
326.684	242
336.887	224
347.075	222
357.251	214
367.413	206
377.562	208
387.697	240
397.819	290
407.926	336
418.02	264
428.101	254
438.169	226
448.223	206
458.264	186
468.291	186
478.306	176
488.307	174
498.294	164
508.269	188
518.23	198
528.177	206
538.113	232
548.034	246
557.942	248
567.838	250
577.72	242
587.589	204
597.446	206
607.289	248
617.119	428
626.936	528
636.741	228
646.533	190
656.313	176
666.078	178
675.831	170
685.571	170
695.299	180
705.014	212
714.716	190
724.406	278
734.082	262
743.746	384
753.398	420
763.037	484
772.664	422
782.278	462
791.879	646
801.467	624
811.044	382
820.608	286
830.16	268
839.699	336
849.226	332
858.741	296
868.243	296
877.731	278
887.209	274
896.674	286
906.128	358
915.569	280
924.997	260
934.414	250
943.818	234
953.211	254
962.59	280
971.958	328
981.314	460
990.659	1164
999.99	4172
1009.31	1524
1018.62	454
1027.91	1184
1037.2	1394
1046.47	476
1055.73	370
1064.98	434
1074.22	432
1083.44	420
1092.65	400
1101.86	408
1111.05	346
1120.22	288
1129.39	262
1138.54	292
1147.69	392
1156.82	962
1165.94	498
1175.05	636
1184.14	1188
1193.23	1140
1202.3	1146
1211.36	718
1220.41	484
1229.45	424
1238.48	376
1247.5	364
1256.5	350
1265.49	340
1274.48	344
1283.45	350
1292.41	388
1301.36	402
1310.29	410
1319.22	488
1328.13	528
1337.04	506
1345.93	390
1354.81	374
1363.68	368
1372.54	378
1381.38	342
1390.22	308
1399.05	272
1407.86	280
1416.66	258
1425.46	264
1434.24	336
1443.01	504
1451.77	616
1460.52	392
1469.25	284
1477.98	302
1486.7	272
1495.4	292
1504.1	280
1512.78	264
1521.45	284
1530.11	280
1538.76	284
1547.41	264
1556.03	292
1564.65	320
1573.26	386
1581.86	800
1590.45	594
1599.02	1234
1607.59	1304
1616.14	512
1624.69	388
1633.22	342
1641.75	342
1650.26	362
1658.76	312
1667.26	300
1675.74	292
1684.21	284
1692.67	308
1701.12	302
1709.56	290
1717.99	298
1726.41	320
1734.82	300
1743.22	286
1751.61	298
1759.99	294
1768.36	304
1776.71	302
1785.06	286
1793.4	310
1801.73	302
1810.04	310
1818.35	306
1826.65	312
1834.94	314
1843.21	302
1851.48	322
1859.74	320
1867.98	318
1876.22	298
1884.45	296
1892.67	314
1900.87	332
1909.07	324
1917.26	326
1925.43	322
1933.6	324
1941.76	324
1949.91	324
1958.05	330
1966.17	334
1974.29	314
1982.4	320
1990.5	328
1998.59	334
2006.67	322
2014.74	336
2022.8	340
2030.85	342
2038.89	324
2046.92	330
2054.94	348
2062.95	342
2070.96	346
2078.95	348
2086.93	354
2094.91	338
2102.87	344
2110.83	338
2118.77	336
2126.71	338
2134.63	354
2142.55	348
2150.46	354
2158.35	348
2166.24	350
2174.12	364
2181.99	354
2189.85	356
2197.7	356
2205.55	354
2213.38	356
2221.2	358
2229.02	354
2236.82	358
2244.62	332
2252.4	344
2260.18	358
2267.95	350
2275.71	358
2283.46	362
2291.2	366
2298.93	368
2306.65	352
2314.37	364
2322.07	358
2329.77	368
2337.45	342
2345.13	364
2352.8	366
2360.46	374
2368.11	386
2375.75	366
2383.38	358
2391.01	388
2398.62	376
2406.23	372
2413.82	368
2421.41	360
2428.99	382
2436.56	394
2444.12	386
2449.79	366