File: Mixture_Classification/Jesse_Dataset_v2/Pure Raman/Polystyrene/633nm/ps-ppo-7jan25-1,0000-map3_Y08_X05.txt
182.393	1078
192.79	1010
203.174	1006
213.542	1086
223.897	1112
234.238	878
244.566	530
254.878	402
265.178	374
275.463	370
285.734	332
295.992	284
306.236	272
316.467	270
326.684	276
336.887	272
347.075	258
357.251	236
367.413	270
377.562	242
387.697	302
397.819	304
407.926	374
418.02	308
428.101	242
438.169	254
448.223	236
458.264	202
468.291	220
478.306	192
488.307	196
498.294	214
508.269	214
518.23	212
528.177	248
538.113	270
548.034	282
557.942	258
567.838	256
577.72	272
587.589	228
597.446	230
607.289	278
617.119	444
626.936	540
636.741	228
646.533	210
656.313	182
666.078	178
675.831	184
685.571	184
695.299	178
705.014	228
714.716	222
724.406	298
734.082	276
743.746	406
753.398	426
763.037	464
772.664	446
782.278	458
791.879	668
801.467	614
811.044	400
820.608	312
830.16	268
839.699	356
849.226	358
858.741	308
868.243	302
877.731	318
887.209	280
896.674	322
906.128	374
915.569	314
924.997	268
934.414	278
943.818	290
953.211	288
962.59	328
971.958	346
981.314	468
990.659	1206
999.99	4224
1009.31	1568
1018.62	496
1027.91	1206
1037.2	1448
1046.47	532
1055.73	414
1064.98	472
1074.22	466
1083.44	452
1092.65	450
1101.86	418
1111.05	386
1120.22	322
1129.39	324
1138.54	354
1147.69	450
1156.82	1004
1165.94	540
1175.05	650
1184.14	1242
1193.23	1190
1202.3	1230
1211.36	754
1220.41	510
1229.45	440
1238.48	428
1247.5	382
1256.5	386
1265.49	378
1274.48	344
1283.45	404
1292.41	386
1301.36	426
1310.29	438
1319.22	482
1328.13	542
1337.04	498
1345.93	430
1354.81	406
1363.68	388
1372.54	410
1381.38	352
1390.22	298
1399.05	286
1407.86	274
1416.66	284
1425.46	260
1434.24	360
1443.01	504
1451.77	634
1460.52	382
1469.25	300
1477.98	300
1486.7	292
1495.4	334
1504.1	264
1512.78	286
1521.45	274
1530.11	288
1538.76	276
1547.41	284
1556.03	288
1564.65	314
1573.26	378
1581.86	830
1590.45	592
1599.02	1236
1607.59	1296
1616.14	488
1624.69	338
1633.22	342
1641.75	346
1650.26	334
1658.76	296
1667.26	280
1675.74	278
1684.21	288
1692.67	298
1701.12	280
1709.56	286
1717.99	288
1726.41	276
1734.82	284
1743.22	284
1751.61	274
1759.99	294
1768.36	290
1776.71	302
1785.06	292
1793.4	292
1801.73	298
1810.04	296
1818.35	296
1826.65	300
1834.94	268
1843.21	308
1851.48	304
1859.74	298
1867.98	282
1876.22	282
1884.45	294
1892.67	290
1900.87	278
1909.07	290
1917.26	304
1925.43	294
1933.6	308
1941.76	308
1949.91	308
1958.05	296
1966.17	302
1974.29	304
1982.4	302
1990.5	292
1998.59	284
2006.67	290
2014.74	284
2022.8	302
2030.85	296
2038.89	312
2046.92	312
2054.94	316
2062.95	296
2070.96	298
2078.95	308
2086.93	310
2094.91	312
2102.87	326
2110.83	306
2118.77	310
2126.71	304
2134.63	312
2142.55	308
2150.46	308
2158.35	302
2166.24	318
2174.12	312
2181.99	318
2189.85	320
2197.7	324
2205.55	320
2213.38	328
2221.2	326
2229.02	324
2236.82	344
2244.62	312
2252.4	310
2260.18	338
2267.95	324
2275.71	358
2283.46	318
2291.2	330
2298.93	322
2306.65	348
2314.37	330
2322.07	322
2329.77	334
2337.45	326
2345.13	326
2352.8	344
2360.46	352
2368.11	336
2375.75	330
2383.38	334
2391.01	338
2398.62	366
2406.23	350
2413.82	350
2421.41	344
2428.99	344
2436.56	346
2444.12	354
2449.79	380