File: Mixture_Classification/Jesse_Dataset_v2/Pure Raman/Polystyrene/633nm/ps-ppo-7jan25-1,0000-map3_Y10_X05.txt
182.393	1016
192.79	916
203.174	930
213.542	1058
223.897	1072
234.238	826
244.566	540
254.878	384
265.178	346
275.463	332
285.734	294
295.992	264
306.236	224
316.467	250
326.684	242
336.887	230
347.075	224
357.251	226
367.413	238
377.562	240
387.697	254
397.819	282
407.926	350
418.02	292
428.101	248
438.169	230
448.223	218
458.264	200
468.291	178
478.306	188
488.307	188
498.294	178
508.269	200
518.23	192
528.177	212
538.113	238
548.034	238
557.942	258
567.838	248
577.72	250
587.589	202
597.446	214
607.289	258
617.119	406
626.936	528
636.741	222
646.533	178
656.313	176
666.078	162
675.831	162
685.571	158
695.299	176
705.014	208
714.716	218
724.406	294
734.082	268
743.746	376
753.398	402
763.037	460
772.664	424
782.278	438
791.879	652
801.467	612
811.044	386
820.608	298
830.16	258
839.699	342
849.226	336
858.741	292
868.243	304
877.731	292
887.209	280
896.674	286
906.128	348
915.569	286
924.997	252
934.414	232
943.818	252
953.211	284
962.59	272
971.958	310
981.314	442
990.659	1140
999.99	4216
1009.31	1534
1018.62	472
1027.91	1190
1037.2	1380
1046.47	460
1055.73	400
1064.98	392
1074.22	438
1083.44	394
1092.65	412
1101.86	432
1111.05	346
1120.22	316
1129.39	274
1138.54	288
1147.69	410
1156.82	934
1165.94	510
1175.05	630
1184.14	1186
1193.23	1148
1202.3	1160
1211.36	714
1220.41	466
1229.45	418
1238.48	360
1247.5	358
1256.5	334
1265.49	352
1274.48	334
1283.45	344
1292.41	360
1301.36	384
1310.29	408
1319.22	478
1328.13	512
1337.04	500
1345.93	384
1354.81	372
1363.68	376
1372.54	372
1381.38	340
1390.22	286
1399.05	266
1407.86	260
1416.66	242
1425.46	262
1434.24	324
1443.01	494
1451.77	584
1460.52	364
1469.25	278
1477.98	278
1486.7	282
1495.4	306
1504.1	256
1512.78	262
1521.45	286
1530.11	268
1538.76	286
1547.41	264
1556.03	272
1564.65	302
1573.26	376
1581.86	836
1590.45	584
1599.02	1232
1607.59	1300
1616.14	462
1624.69	366
1633.22	312
1641.75	336
1650.26	348
1658.76	276
1667.26	282
1675.74	292
1684.21	288
1692.67	284
1701.12	292
1709.56	282
1717.99	278
1726.41	268
1734.82	296
1743.22	262
1751.61	282
1759.99	260
1768.36	278
1776.71	270
1785.06	276
1793.4	288
1801.73	260
1810.04	280
1818.35	274
1826.65	296
1834.94	290
1843.21	272
1851.48	296
1859.74	292
1867.98	282
1876.22	288
1884.45	312
1892.67	288
1900.87	296
1909.07	290
1917.26	300
1925.43	318
1933.6	302
1941.76	284
1949.91	306
1958.05	304
1966.17	312
1974.29	314
1982.4	292
1990.5	296
1998.59	314
2006.67	310
2014.74	312
2022.8	308
2030.85	322
2038.89	308
2046.92	310
2054.94	312
2062.95	322
2070.96	308
2078.95	326
2086.93	316
2094.91	316
2102.87	312
2110.83	318
2118.77	330
2126.71	322
2134.63	324
2142.55	322
2150.46	320
2158.35	314
2166.24	332
2174.12	328
2181.99	326
2189.85	318
2197.7	346
2205.55	340
2213.38	334
2221.2	320
2229.02	324
2236.82	308
2244.62	328
2252.4	312
2260.18	332
2267.95	336
2275.71	324
2283.46	344
2291.2	328
2298.93	326
2306.65	330
2314.37	332
2322.07	346
2329.77	330
2337.45	340
2345.13	344
2352.8	348
2360.46	340
2368.11	348
2375.75	332
2383.38	342
2391.01	340
2398.62	338
2406.23	330
2413.82	342
2421.41	354
2428.99	358
2436.56	336
2444.12	336
2449.79	354