File: Mixture_Classification/Jesse_Dataset_v2/Pure Raman/Polystyrene/633nm/ps-ppo-7jan25-1,0000-map3_Y00_X10.txt
182.393	1048
192.79	966
203.174	974
213.542	1060
223.897	1056
234.238	866
244.566	554
254.878	406
265.178	370
275.463	344
285.734	310
295.992	268
306.236	270
316.467	266
326.684	264
336.887	262
347.075	232
357.251	236
367.413	236
377.562	256
387.697	260
397.819	294
407.926	370
418.02	294
428.101	256
438.169	226
448.223	238
458.264	196
468.291	194
478.306	190
488.307	184
498.294	186
508.269	214
518.23	210
528.177	218
538.113	268
548.034	274
557.942	270
567.838	248
577.72	270
587.589	244
597.446	220
607.289	264
617.119	432
626.936	540
636.741	252
646.533	188
656.313	202
666.078	180
675.831	178
685.571	188
695.299	208
705.014	228
714.716	238
724.406	316
734.082	292
743.746	394
753.398	436
763.037	502
772.664	426
782.278	470
791.879	658
801.467	630
811.044	432
820.608	318
830.16	282
839.699	366
849.226	360
858.741	304
868.243	306
877.731	312
887.209	296
896.674	296
906.128	382
915.569	316
924.997	282
934.414	274
943.818	292
953.211	276
962.59	336
971.958	344
981.314	502
990.659	1186
999.99	4168
1009.31	1592
1018.62	482
1027.91	1200
1037.2	1448
1046.47	494
1055.73	426
1064.98	416
1074.22	468
1083.44	454
1092.65	418
1101.86	418
1111.05	390
1120.22	344
1129.39	292
1138.54	322
1147.69	420
1156.82	988
1165.94	514
1175.05	652
1184.14	1238
1193.23	1150
1202.3	1192
1211.36	764
1220.41	506
1229.45	458
1238.48	402
1247.5	388
1256.5	372
1265.49	384
1274.48	378
1283.45	360
1292.41	406
1301.36	440
1310.29	460
1319.22	496
1328.13	556
1337.04	498
1345.93	432
1354.81	386
1363.68	406
1372.54	388
1381.38	386
1390.22	294
1399.05	316
1407.86	314
1416.66	288
1425.46	302
1434.24	374
1443.01	520
1451.77	636
1460.52	392
1469.25	346
1477.98	298
1486.7	312
1495.4	310
1504.1	308
1512.78	298
1521.45	296
1530.11	290
1538.76	314
1547.41	298
1556.03	302
1564.65	344
1573.26	400
1581.86	840
1590.45	642
1599.02	1254
1607.59	1330
1616.14	528
1624.69	400
1633.22	380
1641.75	364
1650.26	388
1658.76	306
1667.26	312
1675.74	332
1684.21	332
1692.67	318
1701.12	336
1709.56	306
1717.99	324
1726.41	310
1734.82	316
1743.22	308
1751.61	324
1759.99	298
1768.36	306
1776.71	330
1785.06	328
1793.4	306
1801.73	326
1810.04	332
1818.35	340
1826.65	320
1834.94	328
1843.21	320
1851.48	322
1859.74	322
1867.98	316
1876.22	318
1884.45	344
1892.67	322
1900.87	348
1909.07	334
1917.26	328
1925.43	334
1933.6	352
1941.76	342
1949.91	330
1958.05	334
1966.17	334
1974.29	330
1982.4	330
1990.5	342
1998.59	344
2006.67	352
2014.74	342
2022.8	346
2030.85	354
2038.89	340
2046.92	352
2054.94	366
2062.95	358
2070.96	348
2078.95	350
2086.93	352
2094.91	342
2102.87	352
2110.83	368
2118.77	342
2126.71	354
2134.63	350
2142.55	358
2150.46	336
2158.35	380
2166.24	372
2174.12	352
2181.99	370
2189.85	360
2197.7	348
2205.55	368
2213.38	354
2221.2	346
2229.02	360
2236.82	364
2244.62	358
2252.4	356
2260.18	366
2267.95	368
2275.71	368
2283.46	368
2291.2	346
2298.93	360
2306.65	356
2314.37	386
2322.07	362
2329.77	388
2337.45	366
2345.13	370
2352.8	372
2360.46	372
2368.11	372
2375.75	368
2383.38	358
2391.01	364
2398.62	354
2406.23	346
2413.82	398
2421.41	362
2428.99	382
2436.56	384
2444.12	392
2449.79	384