File: Mixture_Classification/Jesse_Dataset_v2/Pure Raman/Polystyrene/633nm/ps-ppo-7jan25-1,0000-map3_Y03_X00.txt
182.393	1066
192.79	1024
203.174	992
213.542	1120
223.897	1156
234.238	888
244.566	582
254.878	440
265.178	396
275.463	382
285.734	350
295.992	294
306.236	290
316.467	284
326.684	264
336.887	270
347.075	260
357.251	252
367.413	256
377.562	272
387.697	294
397.819	314
407.926	376
418.02	320
428.101	274
438.169	250
448.223	232
458.264	214
468.291	210
478.306	206
488.307	202
498.294	212
508.269	214
518.23	226
528.177	238
538.113	258
548.034	276
557.942	280
567.838	276
577.72	262
587.589	230
597.446	222
607.289	286
617.119	434
626.936	552
636.741	256
646.533	208
656.313	186
666.078	184
675.831	196
685.571	200
695.299	204
705.014	262
714.716	234
724.406	312
734.082	312
743.746	386
753.398	434
763.037	516
772.664	438
782.278	458
791.879	628
801.467	646
811.044	404
820.608	334
830.16	288
839.699	368
849.226	360
858.741	308
868.243	316
877.731	288
887.209	314
896.674	308
906.128	376
915.569	338
924.997	284
934.414	280
943.818	302
953.211	296
962.59	326
971.958	346
981.314	500
990.659	1172
999.99	4168
1009.31	1544
1018.62	506
1027.91	1200
1037.2	1494
1046.47	524
1055.73	398
1064.98	418
1074.22	470
1083.44	438
1092.65	456
1101.86	468
1111.05	382
1120.22	342
1129.39	298
1138.54	362
1147.69	446
1156.82	1010
1165.94	556
1175.05	666
1184.14	1268
1193.23	1170
1202.3	1184
1211.36	760
1220.41	522
1229.45	476
1238.48	392
1247.5	406
1256.5	416
1265.49	388
1274.48	390
1283.45	406
1292.41	402
1301.36	430
1310.29	456
1319.22	526
1328.13	560
1337.04	524
1345.93	434
1354.81	422
1363.68	404
1372.54	424
1381.38	368
1390.22	334
1399.05	314
1407.86	318
1416.66	320
1425.46	304
1434.24	348
1443.01	522
1451.77	668
1460.52	412
1469.25	308
1477.98	332
1486.7	288
1495.4	352
1504.1	318
1512.78	306
1521.45	300
1530.11	316
1538.76	298
1547.41	310
1556.03	324
1564.65	342
1573.26	392
1581.86	842
1590.45	598
1599.02	1260
1607.59	1304
1616.14	506
1624.69	366
1633.22	348
1641.75	338
1650.26	346
1658.76	328
1667.26	318
1675.74	280
1684.21	304
1692.67	300
1701.12	298
1709.56	296
1717.99	308
1726.41	290
1734.82	308
1743.22	292
1751.61	308
1759.99	298
1768.36	286
1776.71	294
1785.06	300
1793.4	322
1801.73	272
1810.04	290
1818.35	302
1826.65	300
1834.94	304
1843.21	292
1851.48	292
1859.74	304
1867.98	300
1876.22	310
1884.45	288
1892.67	304
1900.87	318
1909.07	322
1917.26	292
1925.43	328
1933.6	314
1941.76	318
1949.91	322
1958.05	314
1966.17	282
1974.29	316
1982.4	328
1990.5	332
1998.59	302
2006.67	312
2014.74	326
2022.8	312
2030.85	328
2038.89	326
2046.92	326
2054.94	344
2062.95	328
2070.96	328
2078.95	346
2086.93	342
2094.91	322
2102.87	312
2110.83	324
2118.77	336
2126.71	334
2134.63	332
2142.55	356
2150.46	340
2158.35	350
2166.24	340
2174.12	326
2181.99	350
2189.85	322
2197.7	334
2205.55	336
2213.38	318
2221.2	336
2229.02	350
2236.82	342
2244.62	326
2252.4	334
2260.18	342
2267.95	328
2275.71	330
2283.46	352
2291.2	346
2298.93	340
2306.65	352
2314.37	362
2322.07	352
2329.77	348
2337.45	342
2345.13	350
2352.8	358
2360.46	362
2368.11	350
2375.75	358
2383.38	354
2391.01	352
2398.62	360
2406.23	362
2413.82	344
2421.41	382
2428.99	366
2436.56	366
2444.12	364
2449.79	380