File: Mixture_Classification/Jesse_Dataset_v2/Pure Raman/Polystyrene/633nm/ps-ppo-7jan25-1,0000-map3_Y00_X00.txt
182.393	1060
192.79	1010
203.174	978
213.542	1074
223.897	1108
234.238	908
244.566	566
254.878	456
265.178	422
275.463	378
285.734	364
295.992	292
306.236	284
316.467	298
326.684	288
336.887	292
347.075	256
357.251	278
367.413	286
377.562	298
387.697	324
397.819	342
407.926	396
418.02	348
428.101	304
438.169	258
448.223	248
458.264	244
468.291	226
478.306	240
488.307	236
498.294	228
508.269	248
518.23	244
528.177	256
538.113	314
548.034	298
557.942	300
567.838	286
577.72	312
587.589	260
597.446	264
607.289	278
617.119	450
626.936	586
636.741	284
646.533	226
656.313	234
666.078	208
675.831	208
685.571	236
695.299	240
705.014	280
714.716	278
724.406	308
734.082	314
743.746	404
753.398	458
763.037	498
772.664	450
782.278	512
791.879	690
801.467	668
811.044	446
820.608	362
830.16	310
839.699	394
849.226	402
858.741	330
868.243	364
877.731	322
887.209	306
896.674	334
906.128	390
915.569	364
924.997	310
934.414	284
943.818	322
953.211	302
962.59	358
971.958	360
981.314	492
990.659	1206
999.99	4230
1009.31	1666
1018.62	514
1027.91	1258
1037.2	1458
1046.47	556
1055.73	450
1064.98	486
1074.22	460
1083.44	462
1092.65	468
1101.86	500
1111.05	400
1120.22	372
1129.39	314
1138.54	362
1147.69	480
1156.82	1010
1165.94	554
1175.05	708
1184.14	1256
1193.23	1168
1202.3	1226
1211.36	726
1220.41	542
1229.45	484
1238.48	430
1247.5	412
1256.5	386
1265.49	422
1274.48	410
1283.45	386
1292.41	412
1301.36	460
1310.29	494
1319.22	550
1328.13	594
1337.04	564
1345.93	462
1354.81	442
1363.68	426
1372.54	434
1381.38	410
1390.22	358
1399.05	336
1407.86	344
1416.66	314
1425.46	320
1434.24	358
1443.01	542
1451.77	646
1460.52	436
1469.25	330
1477.98	328
1486.7	336
1495.4	334
1504.1	336
1512.78	316
1521.45	314
1530.11	336
1538.76	308
1547.41	326
1556.03	312
1564.65	364
1573.26	418
1581.86	832
1590.45	644
1599.02	1314
1607.59	1346
1616.14	512
1624.69	414
1633.22	368
1641.75	380
1650.26	392
1658.76	330
1667.26	330
1675.74	342
1684.21	332
1692.67	338
1701.12	322
1709.56	326
1717.99	334
1726.41	326
1734.82	312
1743.22	312
1751.61	322
1759.99	328
1768.36	300
1776.71	314
1785.06	320
1793.4	316
1801.73	334
1810.04	328
1818.35	338
1826.65	336
1834.94	318
1843.21	310
1851.48	330
1859.74	340
1867.98	324
1876.22	328
1884.45	316
1892.67	342
1900.87	336
1909.07	330
1917.26	338
1925.43	340
1933.6	348
1941.76	330
1949.91	336
1958.05	366
1966.17	336
1974.29	340
1982.4	354
1990.5	336
1998.59	322
2006.67	328
2014.74	354
2022.8	340
2030.85	364
2038.89	346
2046.92	364
2054.94	350
2062.95	356
2070.96	344
2078.95	338
2086.93	364
2094.91	324
2102.87	352
2110.83	374
2118.77	358
2126.71	364
2134.63	350
2142.55	354
2150.46	364
2158.35	354
2166.24	352
2174.12	342
2181.99	346
2189.85	356
2197.7	374
2205.55	356
2213.38	362
2221.2	354
2229.02	338
2236.82	368
2244.62	368
2252.4	366
2260.18	350
2267.95	382
2275.71	334
2283.46	372
2291.2	372
2298.93	366
2306.65	348
2314.37	356
2322.07	350
2329.77	364
2337.45	378
2345.13	364
2352.8	364
2360.46	380
2368.11	382
2375.75	384
2383.38	362
2391.01	386
2398.62	370
2406.23	372
2413.82	386
2421.41	370
2428.99	390
2436.56	382
2444.12	384
2449.79	376