File: Mixture_Classification/Jesse_Dataset_v2/Pure Raman/Polystyrene/633nm/ps-ppo-7jan25-1,0000-map3_Y09_X01.txt
182.393	1124
192.79	1042
203.174	1038
213.542	1108
223.897	1158
234.238	894
244.566	574
254.878	450
265.178	398
275.463	380
285.734	352
295.992	328
306.236	296
316.467	324
326.684	294
336.887	298
347.075	300
357.251	266
367.413	276
377.562	282
387.697	318
397.819	350
407.926	404
418.02	352
428.101	296
438.169	282
448.223	262
458.264	248
468.291	242
478.306	242
488.307	218
498.294	226
508.269	252
518.23	242
528.177	250
538.113	298
548.034	290
557.942	292
567.838	294
577.72	278
587.589	254
597.446	272
607.289	316
617.119	462
626.936	588
636.741	258
646.533	222
656.313	198
666.078	222
675.831	222
685.571	210
695.299	210
705.014	258
714.716	258
724.406	334
734.082	314
743.746	426
753.398	484
763.037	534
772.664	480
782.278	520
791.879	704
801.467	660
811.044	432
820.608	350
830.16	298
839.699	414
849.226	372
858.741	340
868.243	336
877.731	340
887.209	324
896.674	342
906.128	416
915.569	358
924.997	324
934.414	306
943.818	304
953.211	350
962.59	370
971.958	390
981.314	514
990.659	1232
999.99	4280
1009.31	1644
1018.62	554
1027.91	1294
1037.2	1514
1046.47	554
1055.73	480
1064.98	534
1074.22	492
1083.44	496
1092.65	490
1101.86	496
1111.05	416
1120.22	388
1129.39	346
1138.54	374
1147.69	478
1156.82	1046
1165.94	614
1175.05	668
1184.14	1290
1193.23	1204
1202.3	1224
1211.36	790
1220.41	558
1229.45	494
1238.48	444
1247.5	432
1256.5	414
1265.49	414
1274.48	402
1283.45	406
1292.41	424
1301.36	472
1310.29	490
1319.22	524
1328.13	558
1337.04	534
1345.93	464
1354.81	394
1363.68	422
1372.54	434
1381.38	378
1390.22	332
1399.05	332
1407.86	314
1416.66	324
1425.46	296
1434.24	364
1443.01	520
1451.77	608
1460.52	414
1469.25	316
1477.98	292
1486.7	314
1495.4	334
1504.1	296
1512.78	310
1521.45	294
1530.11	322
1538.76	288
1547.41	306
1556.03	326
1564.65	330
1573.26	410
1581.86	828
1590.45	634
1599.02	1246
1607.59	1352
1616.14	500
1624.69	384
1633.22	356
1641.75	346
1650.26	348
1658.76	332
1667.26	306
1675.74	320
1684.21	310
1692.67	302
1701.12	336
1709.56	296
1717.99	304
1726.41	318
1734.82	308
1743.22	296
1751.61	304
1759.99	308
1768.36	306
1776.71	306
1785.06	312
1793.4	302
1801.73	318
1810.04	314
1818.35	296
1826.65	324
1834.94	314
1843.21	310
1851.48	312
1859.74	318
1867.98	308
1876.22	332
1884.45	298
1892.67	318
1900.87	314
1909.07	330
1917.26	322
1925.43	326
1933.6	308
1941.76	324
1949.91	334
1958.05	310
1966.17	308
1974.29	324
1982.4	332
1990.5	314
1998.59	334
2006.67	314
2014.74	328
2022.8	322
2030.85	316
2038.89	324
2046.92	334
2054.94	334
2062.95	330
2070.96	336
2078.95	320
2086.93	326
2094.91	330
2102.87	328
2110.83	328
2118.77	336
2126.71	328
2134.63	330
2142.55	334
2150.46	338
2158.35	348
2166.24	346
2174.12	340
2181.99	324
2189.85	346
2197.7	342
2205.55	344
2213.38	334
2221.2	346
2229.02	332
2236.82	338
2244.62	334
2252.4	344
2260.18	336
2267.95	346
2275.71	338
2283.46	342
2291.2	354
2298.93	338
2306.65	356
2314.37	352
2322.07	344
2329.77	344
2337.45	352
2345.13	350
2352.8	346
2360.46	346
2368.11	340
2375.75	372
2383.38	344
2391.01	354
2398.62	356
2406.23	352
2413.82	374
2421.41	350
2428.99	366
2436.56	358
2444.12	360
2449.79	348