File: Mixture_Classification/Jesse_Dataset_v2/Pure Raman/Polystyrene/633nm/ps-ppo-7jan25-1,0000-map3_Y03_X04.txt
182.393	1012
192.79	920
203.174	944
213.542	1048
223.897	1102
234.238	844
244.566	536
254.878	374
265.178	322
275.463	326
285.734	286
295.992	234
306.236	234
316.467	224
326.684	226
336.887	228
347.075	212
357.251	214
367.413	204
377.562	228
387.697	252
397.819	266
407.926	320
418.02	280
428.101	252
438.169	226
448.223	208
458.264	176
468.291	192
478.306	168
488.307	178
498.294	170
508.269	190
518.23	186
528.177	216
538.113	238
548.034	248
557.942	248
567.838	228
577.72	238
587.589	208
597.446	198
607.289	238
617.119	414
626.936	512
636.741	216
646.533	178
656.313	160
666.078	168
675.831	172
685.571	164
695.299	164
705.014	214
714.716	204
724.406	286
734.082	272
743.746	358
753.398	408
763.037	458
772.664	426
782.278	418
791.879	628
801.467	604
811.044	372
820.608	288
830.16	262
839.699	342
849.226	322
858.741	298
868.243	292
877.731	286
887.209	270
896.674	272
906.128	336
915.569	290
924.997	254
934.414	238
943.818	250
953.211	262
962.59	288
971.958	316
981.314	450
990.659	1154
999.99	4160
1009.31	1570
1018.62	448
1027.91	1172
1037.2	1414
1046.47	486
1055.73	392
1064.98	402
1074.22	444
1083.44	396
1092.65	402
1101.86	424
1111.05	352
1120.22	288
1129.39	256
1138.54	288
1147.69	384
1156.82	946
1165.94	514
1175.05	608
1184.14	1148
1193.23	1126
1202.3	1156
1211.36	738
1220.41	470
1229.45	398
1238.48	360
1247.5	340
1256.5	348
1265.49	340
1274.48	322
1283.45	352
1292.41	358
1301.36	390
1310.29	402
1319.22	456
1328.13	532
1337.04	464
1345.93	416
1354.81	368
1363.68	370
1372.54	348
1381.38	340
1390.22	278
1399.05	272
1407.86	260
1416.66	234
1425.46	248
1434.24	322
1443.01	472
1451.77	616
1460.52	392
1469.25	292
1477.98	268
1486.7	276
1495.4	306
1504.1	248
1512.78	260
1521.45	258
1530.11	258
1538.76	278
1547.41	278
1556.03	274
1564.65	296
1573.26	364
1581.86	806
1590.45	610
1599.02	1208
1607.59	1296
1616.14	478
1624.69	380
1633.22	304
1641.75	314
1650.26	340
1658.76	280
1667.26	286
1675.74	280
1684.21	290
1692.67	278
1701.12	272
1709.56	302
1717.99	274
1726.41	272
1734.82	298
1743.22	278
1751.61	290
1759.99	274
1768.36	286
1776.71	288
1785.06	288
1793.4	278
1801.73	286
1810.04	292
1818.35	292
1826.65	276
1834.94	300
1843.21	290
1851.48	284
1859.74	298
1867.98	296
1876.22	292
1884.45	296
1892.67	280
1900.87	296
1909.07	298
1917.26	332
1925.43	288
1933.6	302
1941.76	302
1949.91	322
1958.05	290
1966.17	332
1974.29	304
1982.4	292
1990.5	294
1998.59	294
2006.67	306
2014.74	304
2022.8	314
2030.85	316
2038.89	314
2046.92	316
2054.94	312
2062.95	326
2070.96	332
2078.95	334
2086.93	324
2094.91	340
2102.87	328
2110.83	338
2118.77	322
2126.71	322
2134.63	318
2142.55	336
2150.46	332
2158.35	308
2166.24	316
2174.12	322
2181.99	316
2189.85	336
2197.7	338
2205.55	346
2213.38	342
2221.2	336
2229.02	316
2236.82	338
2244.62	308
2252.4	330
2260.18	342
2267.95	344
2275.71	340
2283.46	340
2291.2	350
2298.93	326
2306.65	338
2314.37	346
2322.07	356
2329.77	344
2337.45	332
2345.13	356
2352.8	354
2360.46	366
2368.11	356
2375.75	348
2383.38	346
2391.01	368
2398.62	356
2406.23	320
2413.82	360
2421.41	348
2428.99	352
2436.56	342
2444.12	368
2449.79	356