File: Mixture_Classification/Jesse_Dataset_v2/Pure Raman/Polystyrene/633nm/ps-ppo-7jan25-1,0000-map3_Y03_X08.txt
182.393	1006
192.79	922
203.174	950
213.542	1002
223.897	1074
234.238	802
244.566	510
254.878	384
265.178	338
275.463	304
285.734	274
295.992	242
306.236	234
316.467	238
326.684	220
336.887	220
347.075	224
357.251	206
367.413	206
377.562	232
387.697	266
397.819	292
407.926	318
418.02	268
428.101	236
438.169	224
448.223	204
458.264	176
468.291	188
478.306	176
488.307	162
498.294	182
508.269	190
518.23	206
528.177	208
538.113	264
548.034	240
557.942	254
567.838	252
577.72	250
587.589	214
597.446	224
607.289	268
617.119	408
626.936	536
636.741	218
646.533	166
656.313	158
666.078	164
675.831	154
685.571	158
695.299	170
705.014	212
714.716	212
724.406	292
734.082	260
743.746	380
753.398	416
763.037	484
772.664	422
782.278	432
791.879	626
801.467	598
811.044	392
820.608	286
830.16	262
839.699	338
849.226	320
858.741	270
868.243	294
877.731	280
887.209	280
896.674	256
906.128	346
915.569	288
924.997	246
934.414	246
943.818	256
953.211	262
962.59	296
971.958	312
981.314	466
990.659	1158
999.99	4148
1009.31	1550
1018.62	454
1027.91	1196
1037.2	1444
1046.47	480
1055.73	386
1064.98	394
1074.22	438
1083.44	408
1092.65	400
1101.86	412
1111.05	348
1120.22	316
1129.39	256
1138.54	280
1147.69	430
1156.82	958
1165.94	540
1175.05	608
1184.14	1174
1193.23	1108
1202.3	1156
1211.36	718
1220.41	468
1229.45	418
1238.48	376
1247.5	354
1256.5	360
1265.49	356
1274.48	334
1283.45	336
1292.41	382
1301.36	402
1310.29	418
1319.22	478
1328.13	542
1337.04	458
1345.93	386
1354.81	370
1363.68	366
1372.54	378
1381.38	360
1390.22	274
1399.05	256
1407.86	254
1416.66	264
1425.46	260
1434.24	316
1443.01	474
1451.77	594
1460.52	372
1469.25	280
1477.98	254
1486.7	258
1495.4	278
1504.1	278
1512.78	240
1521.45	270
1530.11	264
1538.76	282
1547.41	264
1556.03	294
1564.65	310
1573.26	350
1581.86	806
1590.45	616
1599.02	1210
1607.59	1336
1616.14	464
1624.69	362
1633.22	330
1641.75	326
1650.26	350
1658.76	282
1667.26	296
1675.74	298
1684.21	310
1692.67	276
1701.12	290
1709.56	310
1717.99	286
1726.41	288
1734.82	286
1743.22	268
1751.61	290
1759.99	274
1768.36	284
1776.71	278
1785.06	284
1793.4	298
1801.73	286
1810.04	296
1818.35	314
1826.65	288
1834.94	286
1843.21	292
1851.48	304
1859.74	294
1867.98	292
1876.22	296
1884.45	294
1892.67	312
1900.87	318
1909.07	314
1917.26	320
1925.43	328
1933.6	306
1941.76	308
1949.91	324
1958.05	314
1966.17	322
1974.29	306
1982.4	312
1990.5	312
1998.59	292
2006.67	300
2014.74	306
2022.8	326
2030.85	312
2038.89	314
2046.92	330
2054.94	318
2062.95	332
2070.96	320
2078.95	330
2086.93	328
2094.91	344
2102.87	330
2110.83	326
2118.77	296
2126.71	322
2134.63	320
2142.55	334
2150.46	344
2158.35	316
2166.24	340
2174.12	324
2181.99	344
2189.85	344
2197.7	332
2205.55	340
2213.38	330
2221.2	332
2229.02	352
2236.82	356
2244.62	340
2252.4	326
2260.18	338
2267.95	364
2275.71	346
2283.46	350
2291.2	334
2298.93	364
2306.65	360
2314.37	354
2322.07	360
2329.77	350
2337.45	336
2345.13	344
2352.8	382
2360.46	352
2368.11	366
2375.75	356
2383.38	366
2391.01	358
2398.62	352
2406.23	348
2413.82	362
2421.41	366
2428.99	348
2436.56	374
2444.12	374
2449.79	366