File: Mixture_Classification/Jesse_Dataset_v2/Pure Raman/Polystyrene/633nm/ps-ppo-7jan25-1,0000-map3_Y00_X06.txt
182.393	1114
192.79	1030
203.174	1022
213.542	1166
223.897	1174
234.238	894
244.566	624
254.878	492
265.178	450
275.463	414
285.734	390
295.992	348
306.236	344
316.467	330
326.684	318
336.887	348
347.075	308
357.251	324
367.413	296
377.562	304
387.697	354
397.819	382
407.926	414
418.02	370
428.101	324
438.169	306
448.223	300
458.264	278
468.291	274
478.306	258
488.307	260
498.294	248
508.269	284
518.23	270
528.177	282
538.113	320
548.034	322
557.942	332
567.838	316
577.72	314
587.589	280
597.446	278
607.289	328
617.119	488
626.936	604
636.741	282
646.533	248
656.313	240
666.078	208
675.831	210
685.571	226
695.299	226
705.014	264
714.716	266
724.406	364
734.082	316
743.746	432
753.398	480
763.037	546
772.664	480
782.278	496
791.879	700
801.467	652
811.044	466
820.608	334
830.16	300
839.699	374
849.226	370
858.741	330
868.243	346
877.731	316
887.209	324
896.674	336
906.128	376
915.569	346
924.997	288
934.414	280
943.818	314
953.211	314
962.59	320
971.958	356
981.314	480
990.659	1228
999.99	4200
1009.31	1608
1018.62	500
1027.91	1212
1037.2	1450
1046.47	538
1055.73	440
1064.98	434
1074.22	470
1083.44	462
1092.65	446
1101.86	448
1111.05	380
1120.22	330
1129.39	320
1138.54	296
1147.69	458
1156.82	1016
1165.94	522
1175.05	654
1184.14	1242
1193.23	1180
1202.3	1214
1211.36	760
1220.41	518
1229.45	452
1238.48	432
1247.5	392
1256.5	376
1265.49	394
1274.48	388
1283.45	402
1292.41	428
1301.36	444
1310.29	464
1319.22	510
1328.13	552
1337.04	496
1345.93	448
1354.81	394
1363.68	418
1372.54	414
1381.38	358
1390.22	310
1399.05	318
1407.86	320
1416.66	304
1425.46	306
1434.24	352
1443.01	532
1451.77	654
1460.52	404
1469.25	322
1477.98	310
1486.7	328
1495.4	334
1504.1	298
1512.78	302
1521.45	326
1530.11	288
1538.76	298
1547.41	310
1556.03	340
1564.65	354
1573.26	416
1581.86	848
1590.45	652
1599.02	1250
1607.59	1358
1616.14	516
1624.69	390
1633.22	360
1641.75	358
1650.26	368
1658.76	312
1667.26	320
1675.74	340
1684.21	326
1692.67	320
1701.12	318
1709.56	322
1717.99	306
1726.41	312
1734.82	320
1743.22	304
1751.61	308
1759.99	306
1768.36	310
1776.71	324
1785.06	318
1793.4	320
1801.73	316
1810.04	334
1818.35	324
1826.65	316
1834.94	320
1843.21	314
1851.48	322
1859.74	330
1867.98	332
1876.22	342
1884.45	330
1892.67	326
1900.87	334
1909.07	332
1917.26	336
1925.43	350
1933.6	340
1941.76	342
1949.91	342
1958.05	302
1966.17	334
1974.29	340
1982.4	330
1990.5	322
1998.59	328
2006.67	338
2014.74	320
2022.8	332
2030.85	320
2038.89	358
2046.92	338
2054.94	360
2062.95	346
2070.96	348
2078.95	344
2086.93	348
2094.91	346
2102.87	354
2110.83	344
2118.77	358
2126.71	336
2134.63	342
2142.55	346
2150.46	360
2158.35	356
2166.24	354
2174.12	346
2181.99	354
2189.85	362
2197.7	344
2205.55	348
2213.38	364
2221.2	348
2229.02	356
2236.82	350
2244.62	348
2252.4	352
2260.18	350
2267.95	356
2275.71	342
2283.46	362
2291.2	354
2298.93	354
2306.65	354
2314.37	354
2322.07	344
2329.77	356
2337.45	356
2345.13	370
2352.8	372
2360.46	374
2368.11	344
2375.75	370
2383.38	320
2391.01	370
2398.62	366
2406.23	366
2413.82	354
2421.41	372
2428.99	366
2436.56	384
2444.12	364
2449.79	394