File: Mixture_Classification/Jesse_Dataset_v2/Pure Raman/Polystyrene/633nm/ps-ppo-7jan25-1,0000-map3_Y07_X01.txt
182.393	994
192.79	946
203.174	930
213.542	1044
223.897	1064
234.238	832
244.566	514
254.878	346
265.178	334
275.463	298
285.734	280
295.992	222
306.236	236
316.467	226
326.684	230
336.887	248
347.075	210
357.251	220
367.413	206
377.562	224
387.697	252
397.819	266
407.926	338
418.02	272
428.101	246
438.169	222
448.223	206
458.264	198
468.291	188
478.306	182
488.307	182
498.294	176
508.269	208
518.23	200
528.177	202
538.113	264
548.034	268
557.942	262
567.838	254
577.72	274
587.589	222
597.446	224
607.289	276
617.119	432
626.936	550
636.741	238
646.533	200
656.313	202
666.078	176
675.831	180
685.571	184
695.299	184
705.014	230
714.716	244
724.406	308
734.082	292
743.746	386
753.398	438
763.037	512
772.664	440
782.278	476
791.879	656
801.467	660
811.044	410
820.608	308
830.16	274
839.699	364
849.226	368
858.741	310
868.243	312
877.731	338
887.209	298
896.674	300
906.128	374
915.569	330
924.997	276
934.414	264
943.818	268
953.211	286
962.59	314
971.958	356
981.314	474
990.659	1188
999.99	4196
1009.31	1618
1018.62	490
1027.91	1172
1037.2	1428
1046.47	496
1055.73	402
1064.98	442
1074.22	442
1083.44	436
1092.65	406
1101.86	432
1111.05	358
1120.22	320
1129.39	290
1138.54	300
1147.69	400
1156.82	922
1165.94	490
1175.05	620
1184.14	1208
1193.23	1134
1202.3	1182
1211.36	740
1220.41	462
1229.45	446
1238.48	364
1247.5	364
1256.5	362
1265.49	350
1274.48	346
1283.45	352
1292.41	374
1301.36	406
1310.29	410
1319.22	454
1328.13	540
1337.04	490
1345.93	404
1354.81	366
1363.68	380
1372.54	376
1381.38	354
1390.22	294
1399.05	274
1407.86	282
1416.66	266
1425.46	268
1434.24	316
1443.01	480
1451.77	606
1460.52	386
1469.25	272
1477.98	262
1486.7	276
1495.4	320
1504.1	248
1512.78	266
1521.45	252
1530.11	284
1538.76	268
1547.41	274
1556.03	288
1564.65	314
1573.26	380
1581.86	826
1590.45	592
1599.02	1228
1607.59	1308
1616.14	498
1624.69	358
1633.22	310
1641.75	320
1650.26	332
1658.76	308
1667.26	284
1675.74	286
1684.21	286
1692.67	284
1701.12	278
1709.56	286
1717.99	288
1726.41	282
1734.82	272
1743.22	284
1751.61	266
1759.99	286
1768.36	288
1776.71	302
1785.06	284
1793.4	276
1801.73	300
1810.04	278
1818.35	294
1826.65	284
1834.94	286
1843.21	300
1851.48	284
1859.74	290
1867.98	296
1876.22	292
1884.45	306
1892.67	286
1900.87	290
1909.07	300
1917.26	308
1925.43	314
1933.6	310
1941.76	304
1949.91	324
1958.05	322
1966.17	310
1974.29	312
1982.4	318
1990.5	308
1998.59	308
2006.67	312
2014.74	314
2022.8	326
2030.85	310
2038.89	308
2046.92	332
2054.94	330
2062.95	324
2070.96	308
2078.95	322
2086.93	314
2094.91	318
2102.87	334
2110.83	328
2118.77	330
2126.71	358
2134.63	342
2142.55	326
2150.46	332
2158.35	344
2166.24	346
2174.12	322
2181.99	320
2189.85	330
2197.7	328
2205.55	352
2213.38	316
2221.2	336
2229.02	352
2236.82	326
2244.62	322
2252.4	340
2260.18	344
2267.95	338
2275.71	338
2283.46	336
2291.2	338
2298.93	352
2306.65	340
2314.37	338
2322.07	332
2329.77	328
2337.45	348
2345.13	350
2352.8	352
2360.46	346
2368.11	344
2375.75	344
2383.38	338
2391.01	350
2398.62	334
2406.23	354
2413.82	340
2421.41	344
2428.99	342
2436.56	352
2444.12	364
2449.79	348