File: Mixture_Classification/Jesse_Dataset_v2/Pure Raman/Polystyrene/633nm/ps-ppo-7jan25-1,0000-map3_Y01_X00.txt
182.393	1060
192.79	946
203.174	966
213.542	1042
223.897	1062
234.238	846
244.566	548
254.878	384
265.178	358
275.463	338
285.734	310
295.992	288
306.236	270
316.467	246
326.684	268
336.887	246
347.075	232
357.251	218
367.413	252
377.562	270
387.697	294
397.819	308
407.926	390
418.02	308
428.101	264
438.169	242
448.223	230
458.264	212
468.291	194
478.306	204
488.307	204
498.294	196
508.269	212
518.23	216
528.177	226
538.113	264
548.034	286
557.942	274
567.838	270
577.72	250
587.589	214
597.446	238
607.289	272
617.119	446
626.936	554
636.741	234
646.533	194
656.313	188
666.078	192
675.831	178
685.571	196
695.299	198
705.014	232
714.716	232
724.406	320
734.082	298
743.746	396
753.398	426
763.037	482
772.664	432
782.278	470
791.879	664
801.467	672
811.044	428
820.608	302
830.16	274
839.699	344
849.226	346
858.741	312
868.243	298
877.731	298
887.209	270
896.674	290
906.128	364
915.569	326
924.997	274
934.414	254
943.818	268
953.211	290
962.59	320
971.958	340
981.314	474
990.659	1160
999.99	4132
1009.31	1572
1018.62	486
1027.91	1210
1037.2	1404
1046.47	510
1055.73	416
1064.98	440
1074.22	448
1083.44	442
1092.65	410
1101.86	408
1111.05	380
1120.22	310
1129.39	298
1138.54	290
1147.69	430
1156.82	1008
1165.94	550
1175.05	656
1184.14	1210
1193.23	1134
1202.3	1206
1211.36	742
1220.41	492
1229.45	440
1238.48	404
1247.5	398
1256.5	378
1265.49	376
1274.48	376
1283.45	370
1292.41	402
1301.36	416
1310.29	446
1319.22	474
1328.13	554
1337.04	512
1345.93	416
1354.81	404
1363.68	370
1372.54	402
1381.38	352
1390.22	300
1399.05	290
1407.86	294
1416.66	270
1425.46	288
1434.24	334
1443.01	502
1451.77	596
1460.52	412
1469.25	306
1477.98	298
1486.7	296
1495.4	318
1504.1	294
1512.78	280
1521.45	290
1530.11	282
1538.76	300
1547.41	304
1556.03	320
1564.65	322
1573.26	390
1581.86	816
1590.45	632
1599.02	1246
1607.59	1280
1616.14	474
1624.69	386
1633.22	322
1641.75	364
1650.26	368
1658.76	302
1667.26	318
1675.74	322
1684.21	308
1692.67	300
1701.12	308
1709.56	304
1717.99	290
1726.41	280
1734.82	292
1743.22	290
1751.61	290
1759.99	304
1768.36	300
1776.71	322
1785.06	280
1793.4	306
1801.73	308
1810.04	316
1818.35	322
1826.65	310
1834.94	314
1843.21	296
1851.48	298
1859.74	290
1867.98	300
1876.22	292
1884.45	324
1892.67	318
1900.87	308
1909.07	312
1917.26	318
1925.43	320
1933.6	312
1941.76	296
1949.91	320
1958.05	326
1966.17	340
1974.29	298
1982.4	330
1990.5	320
1998.59	316
2006.67	336
2014.74	320
2022.8	330
2030.85	324
2038.89	322
2046.92	320
2054.94	330
2062.95	346
2070.96	334
2078.95	338
2086.93	324
2094.91	316
2102.87	342
2110.83	348
2118.77	328
2126.71	342
2134.63	322
2142.55	332
2150.46	338
2158.35	354
2166.24	342
2174.12	316
2181.99	318
2189.85	352
2197.7	346
2205.55	342
2213.38	338
2221.2	338
2229.02	338
2236.82	340
2244.62	336
2252.4	344
2260.18	340
2267.95	348
2275.71	338
2283.46	332
2291.2	352
2298.93	324
2306.65	362
2314.37	350
2322.07	332
2329.77	332
2337.45	354
2345.13	356
2352.8	364
2360.46	380
2368.11	360
2375.75	380
2383.38	352
2391.01	348
2398.62	344
2406.23	364
2413.82	332
2421.41	370
2428.99	368
2436.56	370
2444.12	370
2449.79	384