File: Mixture_Classification/Jesse_Dataset_v2/Pure Raman/Polystyrene/633nm/ps-ppo-7jan25-1,0000-map3_Y03_X07.txt
182.393	972
192.79	944
203.174	934
213.542	1076
223.897	1086
234.238	804
244.566	526
254.878	386
265.178	352
275.463	318
285.734	274
295.992	252
306.236	246
316.467	250
326.684	250
336.887	230
347.075	238
357.251	228
367.413	226
377.562	236
387.697	278
397.819	312
407.926	358
418.02	292
428.101	252
438.169	222
448.223	222
458.264	198
468.291	188
478.306	184
488.307	180
498.294	178
508.269	204
518.23	198
528.177	222
538.113	252
548.034	258
557.942	244
567.838	262
577.72	252
587.589	220
597.446	208
607.289	258
617.119	436
626.936	536
636.741	228
646.533	194
656.313	182
666.078	186
675.831	170
685.571	174
695.299	182
705.014	226
714.716	218
724.406	302
734.082	290
743.746	386
753.398	392
763.037	474
772.664	426
782.278	426
791.879	640
801.467	612
811.044	410
820.608	308
830.16	274
839.699	360
849.226	328
858.741	290
868.243	298
877.731	312
887.209	258
896.674	294
906.128	346
915.569	294
924.997	254
934.414	240
943.818	270
953.211	276
962.59	286
971.958	318
981.314	448
990.659	1144
999.99	4182
1009.31	1588
1018.62	474
1027.91	1156
1037.2	1426
1046.47	490
1055.73	384
1064.98	426
1074.22	454
1083.44	426
1092.65	404
1101.86	428
1111.05	348
1120.22	310
1129.39	274
1138.54	304
1147.69	410
1156.82	962
1165.94	530
1175.05	606
1184.14	1186
1193.23	1122
1202.3	1176
1211.36	720
1220.41	480
1229.45	444
1238.48	356
1247.5	378
1256.5	354
1265.49	364
1274.48	348
1283.45	364
1292.41	360
1301.36	414
1310.29	414
1319.22	476
1328.13	502
1337.04	496
1345.93	374
1354.81	366
1363.68	358
1372.54	384
1381.38	356
1390.22	282
1399.05	278
1407.86	276
1416.66	260
1425.46	266
1434.24	332
1443.01	476
1451.77	624
1460.52	410
1469.25	280
1477.98	286
1486.7	294
1495.4	320
1504.1	264
1512.78	282
1521.45	266
1530.11	262
1538.76	274
1547.41	280
1556.03	292
1564.65	300
1573.26	384
1581.86	800
1590.45	588
1599.02	1238
1607.59	1286
1616.14	478
1624.69	366
1633.22	316
1641.75	344
1650.26	338
1658.76	306
1667.26	302
1675.74	268
1684.21	296
1692.67	298
1701.12	288
1709.56	282
1717.99	288
1726.41	272
1734.82	284
1743.22	280
1751.61	284
1759.99	284
1768.36	286
1776.71	290
1785.06	288
1793.4	310
1801.73	288
1810.04	302
1818.35	296
1826.65	298
1834.94	306
1843.21	306
1851.48	298
1859.74	282
1867.98	298
1876.22	292
1884.45	310
1892.67	310
1900.87	312
1909.07	330
1917.26	318
1925.43	312
1933.6	334
1941.76	320
1949.91	336
1958.05	322
1966.17	328
1974.29	328
1982.4	334
1990.5	324
1998.59	340
2006.67	312
2014.74	324
2022.8	340
2030.85	352
2038.89	354
2046.92	352
2054.94	330
2062.95	336
2070.96	334
2078.95	330
2086.93	340
2094.91	346
2102.87	346
2110.83	352
2118.77	328
2126.71	340
2134.63	354
2142.55	348
2150.46	358
2158.35	348
2166.24	364
2174.12	346
2181.99	362
2189.85	350
2197.7	348
2205.55	364
2213.38	366
2221.2	352
2229.02	360
2236.82	374
2244.62	360
2252.4	376
2260.18	362
2267.95	382
2275.71	350
2283.46	380
2291.2	382
2298.93	368
2306.65	368
2314.37	372
2322.07	374
2329.77	372
2337.45	366
2345.13	370
2352.8	378
2360.46	390
2368.11	364
2375.75	384
2383.38	380
2391.01	384
2398.62	368
2406.23	392
2413.82	382
2421.41	388
2428.99	370
2436.56	380
2444.12	370
2449.79	392