File: Mixture_Classification/Jesse_Dataset_v2/Pure Raman/Polystyrene/633nm/ps-ppo-7jan25-1,0000-map3_Y09_X00.txt
182.393	1030
192.79	958
203.174	974
213.542	1080
223.897	1122
234.238	864
244.566	548
254.878	402
265.178	382
275.463	346
285.734	320
295.992	270
306.236	264
316.467	266
326.684	264
336.887	274
347.075	250
357.251	256
367.413	264
377.562	270
387.697	300
397.819	318
407.926	370
418.02	314
428.101	276
438.169	262
448.223	256
458.264	210
468.291	214
478.306	220
488.307	216
498.294	222
508.269	226
518.23	218
528.177	254
538.113	284
548.034	296
557.942	282
567.838	278
577.72	296
587.589	244
597.446	274
607.289	318
617.119	462
626.936	558
636.741	240
646.533	210
656.313	226
666.078	200
675.831	196
685.571	206
695.299	232
705.014	242
714.716	236
724.406	336
734.082	330
743.746	442
753.398	460
763.037	536
772.664	474
782.278	512
791.879	676
801.467	660
811.044	424
820.608	362
830.16	306
839.699	404
849.226	404
858.741	324
868.243	360
877.731	350
887.209	332
896.674	342
906.128	404
915.569	358
924.997	316
934.414	302
943.818	334
953.211	336
962.59	378
971.958	380
981.314	542
990.659	1218
999.99	4354
1009.31	1632
1018.62	522
1027.91	1228
1037.2	1480
1046.47	542
1055.73	476
1064.98	490
1074.22	510
1083.44	496
1092.65	480
1101.86	484
1111.05	406
1120.22	368
1129.39	328
1138.54	356
1147.69	494
1156.82	1028
1165.94	562
1175.05	724
1184.14	1284
1193.23	1212
1202.3	1222
1211.36	790
1220.41	552
1229.45	516
1238.48	448
1247.5	414
1256.5	410
1265.49	394
1274.48	418
1283.45	416
1292.41	424
1301.36	490
1310.29	508
1319.22	522
1328.13	604
1337.04	546
1345.93	478
1354.81	388
1363.68	434
1372.54	450
1381.38	420
1390.22	338
1399.05	338
1407.86	342
1416.66	304
1425.46	294
1434.24	374
1443.01	528
1451.77	662
1460.52	412
1469.25	334
1477.98	326
1486.7	326
1495.4	354
1504.1	324
1512.78	318
1521.45	302
1530.11	298
1538.76	304
1547.41	312
1556.03	340
1564.65	320
1573.26	430
1581.86	828
1590.45	638
1599.02	1258
1607.59	1356
1616.14	514
1624.69	378
1633.22	354
1641.75	360
1650.26	364
1658.76	342
1667.26	310
1675.74	308
1684.21	330
1692.67	316
1701.12	312
1709.56	326
1717.99	302
1726.41	294
1734.82	342
1743.22	302
1751.61	304
1759.99	288
1768.36	320
1776.71	322
1785.06	296
1793.4	314
1801.73	302
1810.04	328
1818.35	304
1826.65	316
1834.94	290
1843.21	296
1851.48	312
1859.74	300
1867.98	326
1876.22	292
1884.45	300
1892.67	338
1900.87	314
1909.07	344
1917.26	324
1925.43	324
1933.6	336
1941.76	338
1949.91	334
1958.05	312
1966.17	340
1974.29	320
1982.4	312
1990.5	322
1998.59	328
2006.67	340
2014.74	310
2022.8	322
2030.85	330
2038.89	330
2046.92	342
2054.94	330
2062.95	318
2070.96	334
2078.95	326
2086.93	338
2094.91	318
2102.87	338
2110.83	328
2118.77	340
2126.71	344
2134.63	350
2142.55	338
2150.46	354
2158.35	338
2166.24	348
2174.12	328
2181.99	340
2189.85	342
2197.7	350
2205.55	342
2213.38	344
2221.2	362
2229.02	344
2236.82	344
2244.62	358
2252.4	348
2260.18	356
2267.95	342
2275.71	338
2283.46	350
2291.2	336
2298.93	358
2306.65	348
2314.37	344
2322.07	362
2329.77	360
2337.45	360
2345.13	364
2352.8	354
2360.46	352
2368.11	356
2375.75	354
2383.38	378
2391.01	366
2398.62	364
2406.23	372
2413.82	354
2421.41	358
2428.99	384
2436.56	376
2444.12	386
2449.79	362