File: Mixture_Classification/Jesse_Dataset_v2/Pure Raman/Polystyrene/633nm/ps-ppo-7jan25-1,0000-map3_Y05_X10.txt
182.393	1068
192.79	956
203.174	942
213.542	1056
223.897	1056
234.238	812
244.566	544
254.878	418
265.178	344
275.463	330
285.734	294
295.992	258
306.236	260
316.467	260
326.684	270
336.887	246
347.075	258
357.251	228
367.413	244
377.562	268
387.697	276
397.819	306
407.926	352
418.02	294
428.101	254
438.169	252
448.223	234
458.264	202
468.291	200
478.306	210
488.307	190
498.294	208
508.269	206
518.23	216
528.177	240
538.113	254
548.034	274
557.942	286
567.838	262
577.72	268
587.589	222
597.446	234
607.289	298
617.119	436
626.936	542
636.741	230
646.533	194
656.313	192
666.078	190
675.831	186
685.571	190
695.299	184
705.014	234
714.716	234
724.406	324
734.082	304
743.746	386
753.398	440
763.037	520
772.664	440
782.278	470
791.879	678
801.467	638
811.044	420
820.608	318
830.16	266
839.699	368
849.226	350
858.741	312
868.243	320
877.731	312
887.209	314
896.674	308
906.128	362
915.569	308
924.997	272
934.414	282
943.818	270
953.211	294
962.59	326
971.958	338
981.314	500
990.659	1198
999.99	4190
1009.31	1612
1018.62	476
1027.91	1152
1037.2	1442
1046.47	512
1055.73	404
1064.98	438
1074.22	446
1083.44	452
1092.65	448
1101.86	440
1111.05	376
1120.22	324
1129.39	304
1138.54	318
1147.69	442
1156.82	1004
1165.94	532
1175.05	632
1184.14	1198
1193.23	1114
1202.3	1166
1211.36	754
1220.41	508
1229.45	452
1238.48	386
1247.5	386
1256.5	366
1265.49	386
1274.48	362
1283.45	382
1292.41	392
1301.36	432
1310.29	422
1319.22	480
1328.13	552
1337.04	502
1345.93	410
1354.81	388
1363.68	398
1372.54	386
1381.38	362
1390.22	292
1399.05	286
1407.86	288
1416.66	284
1425.46	274
1434.24	344
1443.01	496
1451.77	618
1460.52	394
1469.25	300
1477.98	292
1486.7	278
1495.4	302
1504.1	262
1512.78	280
1521.45	282
1530.11	296
1538.76	294
1547.41	298
1556.03	302
1564.65	330
1573.26	406
1581.86	822
1590.45	626
1599.02	1268
1607.59	1312
1616.14	494
1624.69	374
1633.22	352
1641.75	352
1650.26	342
1658.76	318
1667.26	298
1675.74	300
1684.21	294
1692.67	296
1701.12	310
1709.56	284
1717.99	310
1726.41	300
1734.82	308
1743.22	288
1751.61	294
1759.99	290
1768.36	296
1776.71	286
1785.06	318
1793.4	290
1801.73	288
1810.04	308
1818.35	286
1826.65	298
1834.94	308
1843.21	300
1851.48	298
1859.74	302
1867.98	338
1876.22	312
1884.45	308
1892.67	306
1900.87	316
1909.07	332
1917.26	314
1925.43	324
1933.6	302
1941.76	310
1949.91	320
1958.05	340
1966.17	320
1974.29	314
1982.4	318
1990.5	334
1998.59	310
2006.67	318
2014.74	328
2022.8	326
2030.85	310
2038.89	332
2046.92	334
2054.94	324
2062.95	340
2070.96	342
2078.95	334
2086.93	334
2094.91	342
2102.87	314
2110.83	330
2118.77	360
2126.71	342
2134.63	330
2142.55	340
2150.46	336
2158.35	338
2166.24	360
2174.12	346
2181.99	336
2189.85	332
2197.7	354
2205.55	362
2213.38	352
2221.2	348
2229.02	332
2236.82	348
2244.62	336
2252.4	348
2260.18	356
2267.95	352
2275.71	326
2283.46	350
2291.2	346
2298.93	354
2306.65	352
2314.37	356
2322.07	340
2329.77	364
2337.45	366
2345.13	366
2352.8	356
2360.46	360
2368.11	370
2375.75	350
2383.38	356
2391.01	362
2398.62	370
2406.23	352
2413.82	344
2421.41	360
2428.99	356
2436.56	382
2444.12	354
2449.79	364