File: Mixture_Classification/Jesse_Dataset_v2/Pure Raman/Polystyrene/633nm/ps-ppo-7jan25-1,0000-map3_Y09_X02.txt
182.393	992
192.79	924
203.174	926
213.542	1032
223.897	1112
234.238	812
244.566	514
254.878	352
265.178	324
275.463	318
285.734	284
295.992	244
306.236	224
316.467	230
326.684	238
336.887	224
347.075	216
357.251	216
367.413	206
377.562	232
387.697	254
397.819	276
407.926	332
418.02	288
428.101	228
438.169	216
448.223	208
458.264	170
468.291	186
478.306	164
488.307	178
498.294	168
508.269	192
518.23	182
528.177	202
538.113	258
548.034	236
557.942	236
567.838	240
577.72	232
587.589	202
597.446	218
607.289	252
617.119	412
626.936	534
636.741	216
646.533	170
656.313	172
666.078	164
675.831	148
685.571	168
695.299	168
705.014	204
714.716	208
724.406	278
734.082	282
743.746	370
753.398	406
763.037	484
772.664	408
782.278	456
791.879	642
801.467	632
811.044	396
820.608	288
830.16	242
839.699	344
849.226	334
858.741	292
868.243	300
877.731	278
887.209	274
896.674	282
906.128	350
915.569	298
924.997	236
934.414	234
943.818	254
953.211	260
962.59	308
971.958	296
981.314	464
990.659	1154
999.99	4158
1009.31	1558
1018.62	452
1027.91	1168
1037.2	1388
1046.47	494
1055.73	392
1064.98	414
1074.22	424
1083.44	430
1092.65	408
1101.86	410
1111.05	334
1120.22	306
1129.39	264
1138.54	278
1147.69	408
1156.82	970
1165.94	504
1175.05	602
1184.14	1208
1193.23	1148
1202.3	1158
1211.36	702
1220.41	456
1229.45	406
1238.48	376
1247.5	364
1256.5	356
1265.49	340
1274.48	334
1283.45	340
1292.41	384
1301.36	406
1310.29	410
1319.22	460
1328.13	524
1337.04	468
1345.93	392
1354.81	350
1363.68	370
1372.54	370
1381.38	326
1390.22	282
1399.05	268
1407.86	280
1416.66	258
1425.46	276
1434.24	310
1443.01	472
1451.77	606
1460.52	366
1469.25	274
1477.98	262
1486.7	252
1495.4	304
1504.1	254
1512.78	256
1521.45	256
1530.11	270
1538.76	268
1547.41	272
1556.03	286
1564.65	332
1573.26	348
1581.86	784
1590.45	602
1599.02	1208
1607.59	1278
1616.14	480
1624.69	342
1633.22	294
1641.75	296
1650.26	352
1658.76	294
1667.26	292
1675.74	288
1684.21	300
1692.67	290
1701.12	288
1709.56	282
1717.99	282
1726.41	270
1734.82	294
1743.22	288
1751.61	266
1759.99	290
1768.36	262
1776.71	292
1785.06	280
1793.4	314
1801.73	288
1810.04	278
1818.35	300
1826.65	288
1834.94	296
1843.21	276
1851.48	296
1859.74	288
1867.98	300
1876.22	306
1884.45	308
1892.67	300
1900.87	308
1909.07	306
1917.26	314
1925.43	324
1933.6	320
1941.76	310
1949.91	316
1958.05	316
1966.17	302
1974.29	330
1982.4	328
1990.5	324
1998.59	320
2006.67	318
2014.74	308
2022.8	342
2030.85	324
2038.89	332
2046.92	330
2054.94	316
2062.95	324
2070.96	318
2078.95	350
2086.93	334
2094.91	324
2102.87	318
2110.83	308
2118.77	352
2126.71	324
2134.63	332
2142.55	344
2150.46	336
2158.35	322
2166.24	342
2174.12	348
2181.99	346
2189.85	350
2197.7	326
2205.55	352
2213.38	344
2221.2	330
2229.02	328
2236.82	340
2244.62	334
2252.4	336
2260.18	342
2267.95	332
2275.71	346
2283.46	334
2291.2	346
2298.93	356
2306.65	340
2314.37	346
2322.07	356
2329.77	344
2337.45	336
2345.13	342
2352.8	360
2360.46	340
2368.11	346
2375.75	342
2383.38	366
2391.01	354
2398.62	364
2406.23	348
2413.82	352
2421.41	346
2428.99	360
2436.56	350
2444.12	360
2449.79	372