File: Mixture_Classification/Jesse_Dataset_v2/Pure Raman/Polystyrene/633nm/ps-ppo-7jan25-1,0000-map3_Y02_X08.txt
182.393	1064
192.79	964
203.174	940
213.542	1070
223.897	1096
234.238	854
244.566	544
254.878	386
265.178	342
275.463	318
285.734	290
295.992	266
306.236	242
316.467	244
326.684	252
336.887	248
347.075	250
357.251	232
367.413	232
377.562	240
387.697	268
397.819	288
407.926	352
418.02	294
428.101	262
438.169	230
448.223	216
458.264	196
468.291	210
478.306	198
488.307	202
498.294	184
508.269	216
518.23	218
528.177	218
538.113	292
548.034	288
557.942	268
567.838	258
577.72	284
587.589	234
597.446	228
607.289	284
617.119	432
626.936	554
636.741	240
646.533	196
656.313	174
666.078	208
675.831	192
685.571	186
695.299	210
705.014	246
714.716	228
724.406	312
734.082	298
743.746	384
753.398	432
763.037	484
772.664	446
782.278	470
791.879	658
801.467	624
811.044	420
820.608	312
830.16	284
839.699	348
849.226	334
858.741	302
868.243	296
877.731	286
887.209	296
896.674	288
906.128	368
915.569	304
924.997	268
934.414	260
943.818	278
953.211	268
962.59	290
971.958	332
981.314	448
990.659	1156
999.99	4122
1009.31	1534
1018.62	470
1027.91	1128
1037.2	1420
1046.47	494
1055.73	390
1064.98	414
1074.22	432
1083.44	430
1092.65	404
1101.86	420
1111.05	348
1120.22	312
1129.39	254
1138.54	308
1147.69	404
1156.82	970
1165.94	526
1175.05	656
1184.14	1162
1193.23	1138
1202.3	1136
1211.36	728
1220.41	488
1229.45	422
1238.48	386
1247.5	358
1256.5	344
1265.49	348
1274.48	360
1283.45	348
1292.41	376
1301.36	400
1310.29	432
1319.22	460
1328.13	526
1337.04	494
1345.93	392
1354.81	362
1363.68	374
1372.54	380
1381.38	362
1390.22	274
1399.05	284
1407.86	274
1416.66	262
1425.46	256
1434.24	326
1443.01	486
1451.77	628
1460.52	404
1469.25	296
1477.98	296
1486.7	268
1495.4	306
1504.1	270
1512.78	270
1521.45	270
1530.11	278
1538.76	280
1547.41	264
1556.03	290
1564.65	326
1573.26	372
1581.86	818
1590.45	612
1599.02	1202
1607.59	1314
1616.14	500
1624.69	378
1633.22	326
1641.75	332
1650.26	320
1658.76	300
1667.26	304
1675.74	290
1684.21	294
1692.67	296
1701.12	284
1709.56	288
1717.99	292
1726.41	290
1734.82	274
1743.22	290
1751.61	288
1759.99	282
1768.36	274
1776.71	284
1785.06	298
1793.4	296
1801.73	296
1810.04	310
1818.35	298
1826.65	290
1834.94	292
1843.21	292
1851.48	306
1859.74	290
1867.98	298
1876.22	300
1884.45	294
1892.67	290
1900.87	312
1909.07	308
1917.26	302
1925.43	316
1933.6	318
1941.76	326
1949.91	318
1958.05	300
1966.17	322
1974.29	310
1982.4	316
1990.5	310
1998.59	318
2006.67	304
2014.74	316
2022.8	320
2030.85	330
2038.89	306
2046.92	336
2054.94	336
2062.95	316
2070.96	328
2078.95	314
2086.93	332
2094.91	330
2102.87	332
2110.83	346
2118.77	336
2126.71	334
2134.63	334
2142.55	330
2150.46	348
2158.35	348
2166.24	334
2174.12	332
2181.99	334
2189.85	334
2197.7	324
2205.55	330
2213.38	318
2221.2	332
2229.02	350
2236.82	350
2244.62	338
2252.4	330
2260.18	354
2267.95	344
2275.71	342
2283.46	346
2291.2	346
2298.93	350
2306.65	354
2314.37	364
2322.07	348
2329.77	360
2337.45	340
2345.13	358
2352.8	346
2360.46	330
2368.11	346
2375.75	340
2383.38	334
2391.01	358
2398.62	346
2406.23	366
2413.82	348
2421.41	360
2428.99	354
2436.56	356
2444.12	378
2449.79	374