File: Mixture_Classification/Jesse_Dataset_v2/Pure Raman/Polystyrene/633nm/ps-ppo-7jan25-1,0000-map3_Y08_X07.txt
182.393	1114
192.79	1044
203.174	1064
213.542	1114
223.897	1134
234.238	904
244.566	572
254.878	444
265.178	412
275.463	392
285.734	340
295.992	312
306.236	314
316.467	290
326.684	304
336.887	290
347.075	286
357.251	288
367.413	268
377.562	280
387.697	332
397.819	352
407.926	398
418.02	346
428.101	304
438.169	280
448.223	252
458.264	218
468.291	220
478.306	232
488.307	226
498.294	220
508.269	230
518.23	240
528.177	272
538.113	280
548.034	318
557.942	280
567.838	284
577.72	276
587.589	248
597.446	252
607.289	302
617.119	440
626.936	586
636.741	248
646.533	218
656.313	200
666.078	200
675.831	210
685.571	192
695.299	194
705.014	234
714.716	240
724.406	324
734.082	338
743.746	410
753.398	406
763.037	512
772.664	468
782.278	502
791.879	686
801.467	654
811.044	428
820.608	310
830.16	304
839.699	384
849.226	372
858.741	316
868.243	330
877.731	322
887.209	316
896.674	314
906.128	396
915.569	330
924.997	300
934.414	268
943.818	292
953.211	298
962.59	310
971.958	372
981.314	514
990.659	1232
999.99	4314
1009.31	1570
1018.62	488
1027.91	1226
1037.2	1442
1046.47	548
1055.73	412
1064.98	470
1074.22	474
1083.44	478
1092.65	490
1101.86	486
1111.05	400
1120.22	338
1129.39	338
1138.54	342
1147.69	472
1156.82	1020
1165.94	564
1175.05	640
1184.14	1212
1193.23	1180
1202.3	1226
1211.36	774
1220.41	540
1229.45	488
1238.48	422
1247.5	420
1256.5	400
1265.49	384
1274.48	378
1283.45	386
1292.41	416
1301.36	448
1310.29	486
1319.22	510
1328.13	558
1337.04	550
1345.93	414
1354.81	412
1363.68	422
1372.54	430
1381.38	354
1390.22	294
1399.05	302
1407.86	318
1416.66	306
1425.46	296
1434.24	370
1443.01	532
1451.77	648
1460.52	436
1469.25	326
1477.98	312
1486.7	308
1495.4	332
1504.1	298
1512.78	320
1521.45	296
1530.11	292
1538.76	316
1547.41	306
1556.03	324
1564.65	326
1573.26	414
1581.86	816
1590.45	668
1599.02	1226
1607.59	1262
1616.14	498
1624.69	376
1633.22	342
1641.75	360
1650.26	364
1658.76	318
1667.26	308
1675.74	320
1684.21	316
1692.67	304
1701.12	306
1709.56	298
1717.99	302
1726.41	302
1734.82	280
1743.22	318
1751.61	312
1759.99	316
1768.36	284
1776.71	300
1785.06	302
1793.4	314
1801.73	300
1810.04	314
1818.35	306
1826.65	306
1834.94	294
1843.21	308
1851.48	302
1859.74	302
1867.98	300
1876.22	320
1884.45	332
1892.67	296
1900.87	296
1909.07	328
1917.26	322
1925.43	322
1933.6	314
1941.76	340
1949.91	302
1958.05	320
1966.17	324
1974.29	314
1982.4	314
1990.5	336
1998.59	302
2006.67	316
2014.74	328
2022.8	328
2030.85	322
2038.89	320
2046.92	314
2054.94	324
2062.95	352
2070.96	330
2078.95	320
2086.93	318
2094.91	322
2102.87	338
2110.83	344
2118.77	356
2126.71	348
2134.63	330
2142.55	338
2150.46	362
2158.35	354
2166.24	330
2174.12	360
2181.99	334
2189.85	368
2197.7	350
2205.55	358
2213.38	340
2221.2	350
2229.02	346
2236.82	336
2244.62	324
2252.4	352
2260.18	338
2267.95	348
2275.71	364
2283.46	364
2291.2	338
2298.93	358
2306.65	340
2314.37	374
2322.07	360
2329.77	340
2337.45	344
2345.13	352
2352.8	348
2360.46	340
2368.11	358
2375.75	342
2383.38	368
2391.01	344
2398.62	362
2406.23	338
2413.82	346
2421.41	354
2428.99	376
2436.56	364
2444.12	384
2449.79	382