File: Mixture_Classification/Jesse_Dataset_v2/Pure Raman/Polystyrene/633nm/ps-ppo-7jan25-1,0000-map3_Y01_X03.txt
182.393	1052
192.79	980
203.174	980
213.542	1076
223.897	1122
234.238	922
244.566	592
254.878	426
265.178	394
275.463	360
285.734	328
295.992	284
306.236	278
316.467	306
326.684	296
336.887	278
347.075	270
357.251	272
367.413	246
377.562	266
387.697	298
397.819	318
407.926	380
418.02	316
428.101	294
438.169	268
448.223	238
458.264	236
468.291	236
478.306	214
488.307	222
498.294	232
508.269	244
518.23	244
528.177	262
538.113	304
548.034	296
557.942	288
567.838	274
577.72	300
587.589	260
597.446	262
607.289	310
617.119	462
626.936	556
636.741	270
646.533	234
656.313	204
666.078	206
675.831	206
685.571	216
695.299	224
705.014	252
714.716	274
724.406	332
734.082	300
743.746	430
753.398	490
763.037	528
772.664	474
782.278	472
791.879	710
801.467	692
811.044	444
820.608	346
830.16	288
839.699	362
849.226	376
858.741	324
868.243	328
877.731	318
887.209	320
896.674	302
906.128	380
915.569	338
924.997	292
934.414	302
943.818	306
953.211	314
962.59	338
971.958	370
981.314	494
990.659	1200
999.99	4202
1009.31	1598
1018.62	510
1027.91	1220
1037.2	1508
1046.47	550
1055.73	420
1064.98	470
1074.22	450
1083.44	482
1092.65	464
1101.86	462
1111.05	356
1120.22	352
1129.39	324
1138.54	356
1147.69	436
1156.82	1000
1165.94	550
1175.05	688
1184.14	1250
1193.23	1160
1202.3	1204
1211.36	776
1220.41	498
1229.45	476
1238.48	412
1247.5	416
1256.5	380
1265.49	404
1274.48	396
1283.45	394
1292.41	420
1301.36	434
1310.29	458
1319.22	506
1328.13	566
1337.04	532
1345.93	442
1354.81	384
1363.68	410
1372.54	396
1381.38	374
1390.22	304
1399.05	316
1407.86	298
1416.66	284
1425.46	310
1434.24	354
1443.01	508
1451.77	648
1460.52	412
1469.25	328
1477.98	302
1486.7	304
1495.4	336
1504.1	306
1512.78	298
1521.45	304
1530.11	288
1538.76	294
1547.41	322
1556.03	302
1564.65	340
1573.26	392
1581.86	812
1590.45	632
1599.02	1234
1607.59	1320
1616.14	496
1624.69	388
1633.22	330
1641.75	366
1650.26	396
1658.76	332
1667.26	312
1675.74	336
1684.21	332
1692.67	322
1701.12	314
1709.56	318
1717.99	310
1726.41	296
1734.82	308
1743.22	324
1751.61	324
1759.99	300
1768.36	314
1776.71	328
1785.06	328
1793.4	332
1801.73	326
1810.04	322
1818.35	338
1826.65	344
1834.94	340
1843.21	326
1851.48	352
1859.74	340
1867.98	350
1876.22	348
1884.45	332
1892.67	352
1900.87	344
1909.07	380
1917.26	364
1925.43	374
1933.6	384
1941.76	366
1949.91	388
1958.05	396
1966.17	374
1974.29	370
1982.4	406
1990.5	404
1998.59	400
2006.67	416
2014.74	424
2022.8	418
2030.85	432
2038.89	412
2046.92	442
2054.94	436
2062.95	474
2070.96	454
2078.95	490
2086.93	470
2094.91	516
2102.87	488
2110.83	498
2118.77	508
2126.71	502
2134.63	500
2142.55	494
2150.46	506
2158.35	518
2166.24	486
2174.12	520
2181.99	520
2189.85	536
2197.7	540
2205.55	502
2213.38	506
2221.2	524
2229.02	524
2236.82	502
2244.62	524
2252.4	488
2260.18	496
2267.95	476
2275.71	486
2283.46	470
2291.2	472
2298.93	456
2306.65	452
2314.37	496
2322.07	454
2329.77	470
2337.45	464
2345.13	458
2352.8	462
2360.46	448
2368.11	454
2375.75	444
2383.38	454
2391.01	434
2398.62	456
2406.23	416
2413.82	430
2421.41	446
2428.99	456
2436.56	458
2444.12	440
2449.79	430