File: Mixture_Classification/Jesse_Dataset_v2/Pure Raman/Polystyrene/633nm/ps-ppo-7jan25-1,0000-map3_Y10_X10.txt
182.393	1022
192.79	928
203.174	916
213.542	1066
223.897	1062
234.238	812
244.566	498
254.878	382
265.178	336
275.463	318
285.734	270
295.992	244
306.236	222
316.467	230
326.684	216
336.887	224
347.075	214
357.251	226
367.413	222
377.562	226
387.697	260
397.819	290
407.926	348
418.02	258
428.101	236
438.169	210
448.223	198
458.264	176
468.291	184
478.306	176
488.307	190
498.294	186
508.269	204
518.23	200
528.177	224
538.113	262
548.034	262
557.942	244
567.838	264
577.72	244
587.589	218
597.446	206
607.289	258
617.119	434
626.936	506
636.741	212
646.533	184
656.313	170
666.078	178
675.831	170
685.571	170
695.299	164
705.014	226
714.716	216
724.406	302
734.082	294
743.746	366
753.398	420
763.037	496
772.664	420
782.278	442
791.879	624
801.467	646
811.044	386
820.608	292
830.16	262
839.699	340
849.226	332
858.741	282
868.243	300
877.731	290
887.209	270
896.674	288
906.128	364
915.569	302
924.997	256
934.414	258
943.818	250
953.211	254
962.59	304
971.958	340
981.314	482
990.659	1190
999.99	4270
1009.31	1486
1018.62	478
1027.91	1210
1037.2	1380
1046.47	480
1055.73	410
1064.98	408
1074.22	454
1083.44	426
1092.65	394
1101.86	430
1111.05	330
1120.22	304
1129.39	256
1138.54	310
1147.69	414
1156.82	996
1165.94	500
1175.05	604
1184.14	1210
1193.23	1114
1202.3	1170
1211.36	706
1220.41	478
1229.45	448
1238.48	372
1247.5	370
1256.5	344
1265.49	366
1274.48	354
1283.45	346
1292.41	378
1301.36	390
1310.29	430
1319.22	486
1328.13	508
1337.04	462
1345.93	398
1354.81	388
1363.68	386
1372.54	376
1381.38	350
1390.22	294
1399.05	260
1407.86	280
1416.66	262
1425.46	280
1434.24	330
1443.01	502
1451.77	594
1460.52	384
1469.25	276
1477.98	286
1486.7	278
1495.4	328
1504.1	284
1512.78	268
1521.45	288
1530.11	280
1538.76	278
1547.41	280
1556.03	298
1564.65	292
1573.26	384
1581.86	806
1590.45	594
1599.02	1248
1607.59	1288
1616.14	472
1624.69	362
1633.22	322
1641.75	342
1650.26	344
1658.76	300
1667.26	268
1675.74	292
1684.21	288
1692.67	294
1701.12	298
1709.56	276
1717.99	280
1726.41	276
1734.82	298
1743.22	294
1751.61	302
1759.99	278
1768.36	284
1776.71	294
1785.06	276
1793.4	298
1801.73	296
1810.04	308
1818.35	312
1826.65	306
1834.94	292
1843.21	290
1851.48	300
1859.74	288
1867.98	284
1876.22	278
1884.45	298
1892.67	308
1900.87	302
1909.07	312
1917.26	312
1925.43	316
1933.6	308
1941.76	308
1949.91	314
1958.05	294
1966.17	314
1974.29	300
1982.4	308
1990.5	316
1998.59	314
2006.67	318
2014.74	312
2022.8	320
2030.85	314
2038.89	308
2046.92	316
2054.94	326
2062.95	322
2070.96	306
2078.95	344
2086.93	342
2094.91	312
2102.87	324
2110.83	322
2118.77	338
2126.71	318
2134.63	320
2142.55	322
2150.46	330
2158.35	342
2166.24	328
2174.12	314
2181.99	334
2189.85	318
2197.7	336
2205.55	350
2213.38	344
2221.2	342
2229.02	338
2236.82	320
2244.62	332
2252.4	340
2260.18	328
2267.95	346
2275.71	358
2283.46	350
2291.2	348
2298.93	324
2306.65	332
2314.37	332
2322.07	354
2329.77	352
2337.45	332
2345.13	346
2352.8	352
2360.46	356
2368.11	358
2375.75	338
2383.38	346
2391.01	336
2398.62	360
2406.23	362
2413.82	354
2421.41	354
2428.99	376
2436.56	356
2444.12	366
2449.79	368