File: Mixture_Classification/Jesse_Dataset_v2/Pure Raman/Polystyrene/633nm/ps-ppo-7jan25-1,0000-map3_Y02_X04.txt
182.393	1066
192.79	956
203.174	992
213.542	1076
223.897	1096
234.238	834
244.566	532
254.878	414
265.178	348
275.463	338
285.734	310
295.992	270
306.236	258
316.467	262
326.684	266
336.887	246
347.075	222
357.251	236
367.413	244
377.562	252
387.697	274
397.819	310
407.926	364
418.02	312
428.101	224
438.169	248
448.223	226
458.264	184
468.291	206
478.306	200
488.307	180
498.294	198
508.269	206
518.23	214
528.177	224
538.113	250
548.034	260
557.942	272
567.838	264
577.72	264
587.589	232
597.446	218
607.289	272
617.119	450
626.936	524
636.741	226
646.533	202
656.313	176
666.078	188
675.831	172
685.571	176
695.299	182
705.014	220
714.716	236
724.406	314
734.082	274
743.746	396
753.398	396
763.037	476
772.664	432
782.278	462
791.879	650
801.467	634
811.044	408
820.608	318
830.16	266
839.699	356
849.226	340
858.741	304
868.243	304
877.731	310
887.209	294
896.674	302
906.128	362
915.569	300
924.997	252
934.414	256
943.818	288
953.211	280
962.59	300
971.958	316
981.314	464
990.659	1130
999.99	4192
1009.31	1590
1018.62	472
1027.91	1158
1037.2	1428
1046.47	502
1055.73	404
1064.98	434
1074.22	448
1083.44	430
1092.65	438
1101.86	434
1111.05	340
1120.22	336
1129.39	280
1138.54	324
1147.69	438
1156.82	986
1165.94	514
1175.05	612
1184.14	1182
1193.23	1156
1202.3	1148
1211.36	724
1220.41	496
1229.45	438
1238.48	376
1247.5	376
1256.5	358
1265.49	368
1274.48	348
1283.45	374
1292.41	396
1301.36	420
1310.29	428
1319.22	496
1328.13	558
1337.04	502
1345.93	402
1354.81	384
1363.68	378
1372.54	400
1381.38	340
1390.22	278
1399.05	284
1407.86	294
1416.66	264
1425.46	278
1434.24	322
1443.01	502
1451.77	610
1460.52	380
1469.25	310
1477.98	284
1486.7	284
1495.4	320
1504.1	276
1512.78	282
1521.45	272
1530.11	262
1538.76	278
1547.41	256
1556.03	294
1564.65	318
1573.26	354
1581.86	784
1590.45	578
1599.02	1222
1607.59	1282
1616.14	468
1624.69	368
1633.22	336
1641.75	334
1650.26	350
1658.76	300
1667.26	272
1675.74	296
1684.21	304
1692.67	278
1701.12	294
1709.56	298
1717.99	270
1726.41	294
1734.82	290
1743.22	272
1751.61	276
1759.99	288
1768.36	272
1776.71	272
1785.06	274
1793.4	288
1801.73	284
1810.04	274
1818.35	292
1826.65	276
1834.94	296
1843.21	286
1851.48	288
1859.74	300
1867.98	292
1876.22	288
1884.45	290
1892.67	294
1900.87	294
1909.07	302
1917.26	316
1925.43	310
1933.6	330
1941.76	318
1949.91	324
1958.05	320
1966.17	294
1974.29	314
1982.4	300
1990.5	302
1998.59	310
2006.67	308
2014.74	312
2022.8	314
2030.85	306
2038.89	308
2046.92	304
2054.94	314
2062.95	314
2070.96	324
2078.95	320
2086.93	318
2094.91	316
2102.87	298
2110.83	314
2118.77	330
2126.71	316
2134.63	320
2142.55	330
2150.46	308
2158.35	322
2166.24	314
2174.12	318
2181.99	326
2189.85	324
2197.7	354
2205.55	328
2213.38	330
2221.2	350
2229.02	338
2236.82	330
2244.62	332
2252.4	312
2260.18	348
2267.95	320
2275.71	344
2283.46	328
2291.2	330
2298.93	344
2306.65	336
2314.37	360
2322.07	338
2329.77	326
2337.45	320
2345.13	334
2352.8	350
2360.46	344
2368.11	352
2375.75	322
2383.38	366
2391.01	342
2398.62	378
2406.23	344
2413.82	356
2421.41	348
2428.99	342
2436.56	312
2444.12	362
2449.79	362