File: Mixture_Classification/Jesse_Dataset_v2/Pure Raman/Polypropylene oxide/633nm/ps-ppo-7jan25-0,0000-map2_Y02_X05.txt
182.393	712
192.79	640
203.174	504
213.542	476
223.897	610
234.238	1312
244.566	882
254.878	480
265.178	334
275.463	294
285.734	384
295.992	602
306.236	444
316.467	384
326.684	392
336.887	430
347.075	338
357.251	356
367.413	328
377.562	300
387.697	274
397.819	240
407.926	266
418.02	362
428.101	220
438.169	188
448.223	170
458.264	180
468.291	230
478.306	400
488.307	462
498.294	254
508.269	256
518.23	316
528.177	372
538.113	806
548.034	452
557.942	530
567.838	2722
577.72	1530
587.589	614
597.446	436
607.289	252
617.119	206
626.936	288
636.741	322
646.533	266
656.313	218
666.078	182
675.831	158
685.571	176
695.299	186
705.014	204
714.716	258
724.406	208
734.082	218
743.746	292
753.398	300
763.037	202
772.664	224
782.278	222
791.879	202
801.467	188
811.044	212
820.608	246
830.16	804
839.699	366
849.226	284
858.741	234
868.243	204
877.731	198
887.209	186
896.674	174
906.128	170
915.569	174
924.997	198
934.414	208
943.818	260
953.211	550
962.59	906
971.958	480
981.314	244
990.659	230
999.99	194
1009.31	206
1018.62	228
1027.91	278
1037.2	298
1046.47	232
1055.73	212
1064.98	208
1074.22	204
1083.44	212
1092.65	234
1101.86	252
1111.05	828
1120.22	398
1129.39	254
1138.54	246
1147.69	244
1156.82	260
1165.94	278
1175.05	286
1184.14	558
1193.23	452
1202.3	460
1211.36	310
1220.41	242
1229.45	370
1238.48	254
1247.5	230
1256.5	238
1265.49	258
1274.48	280
1283.45	360
1292.41	524
1301.36	1604
1310.29	1358
1319.22	566
1328.13	468
1337.04	334
1345.93	392
1354.81	364
1363.68	316
1372.54	558
1381.38	1076
1390.22	402
1399.05	288
1407.86	290
1416.66	346
1425.46	406
1434.24	456
1443.01	510
1451.77	388
1460.52	398
1469.25	392
1477.98	374
1486.7	328
1495.4	306
1504.1	288
1512.78	314
1521.45	280
1530.11	286
1538.76	268
1547.41	280
1556.03	290
1564.65	322
1573.26	360
1581.86	482
1590.45	774
1599.02	1326
1607.59	1280
1616.14	736
1624.69	420
1633.22	308
1641.75	266
1650.26	256
1658.76	236
1667.26	230
1675.74	234
1684.21	254
1692.67	262
1701.12	256
1709.56	242
1717.99	216
1726.41	250
1734.82	218
1743.22	220
1751.61	218
1759.99	222
1768.36	218
1776.71	230
1785.06	220
1793.4	226
1801.73	242
1810.04	206
1818.35	226
1826.65	222
1834.94	230
1843.21	222
1851.48	214
1859.74	206
1867.98	218
1876.22	216
1884.45	230
1892.67	238
1900.87	216
1909.07	216
1917.26	226
1925.43	236
1933.6	232
1941.76	226
1949.91	224
1958.05	248
1966.17	210
1974.29	212
1982.4	228
1990.5	224
1998.59	234
2006.67	234
2014.74	232
2022.8	220
2030.85	222
2038.89	214
2046.92	218
2054.94	238
2062.95	220
2070.96	206
2078.95	228
2086.93	224
2094.91	204
2102.87	214
2110.83	218
2118.77	210
2126.71	216
2134.63	224
2142.55	236
2150.46	224
2158.35	216
2166.24	210
2174.12	226
2181.99	216
2189.85	216
2197.7	216
2205.55	210
2213.38	214
2221.2	222
2229.02	214
2236.82	204
2244.62	222
2252.4	212
2260.18	202
2267.95	212
2275.71	226
2283.46	216
2291.2	216
2298.93	214
2306.65	224
2314.37	230
2322.07	238
2329.77	238
2337.45	222
2345.13	232
2352.8	228
2360.46	222
2368.11	220
2375.75	226
2383.38	218
2391.01	214
2398.62	220
2406.23	224
2413.82	240
2421.41	214
2428.99	208
2436.56	206
2444.12	214
2449.79	228