File: Mixture_Classification/Jesse_Dataset_v2/Pure Raman/Polypropylene oxide/633nm/ps-ppo-7jan25-0,0000-map2_Y09_X01.txt
182.393	702
192.79	596
203.174	504
213.542	448
223.897	576
234.238	1258
244.566	880
254.878	462
265.178	302
275.463	292
285.734	400
295.992	628
306.236	466
316.467	358
326.684	370
336.887	386
347.075	348
357.251	380
367.413	350
377.562	294
387.697	264
397.819	246
407.926	288
418.02	370
428.101	244
438.169	202
448.223	160
458.264	178
468.291	240
478.306	380
488.307	462
498.294	250
508.269	256
518.23	324
528.177	384
538.113	796
548.034	466
557.942	490
567.838	2558
577.72	1608
587.589	600
597.446	468
607.289	248
617.119	220
626.936	254
636.741	326
646.533	246
656.313	210
666.078	176
675.831	182
685.571	178
695.299	166
705.014	178
714.716	238
724.406	200
734.082	204
743.746	282
753.398	294
763.037	198
772.664	200
782.278	238
791.879	194
801.467	194
811.044	212
820.608	260
830.16	788
839.699	394
849.226	270
858.741	238
868.243	206
877.731	202
887.209	186
896.674	180
906.128	200
915.569	180
924.997	198
934.414	224
943.818	252
953.211	550
962.59	878
971.958	454
981.314	248
990.659	220
999.99	222
1009.31	216
1018.62	228
1027.91	278
1037.2	278
1046.47	234
1055.73	202
1064.98	222
1074.22	208
1083.44	196
1092.65	204
1101.86	244
1111.05	802
1120.22	388
1129.39	266
1138.54	264
1147.69	246
1156.82	252
1165.94	254
1175.05	280
1184.14	550
1193.23	458
1202.3	474
1211.36	306
1220.41	244
1229.45	360
1238.48	252
1247.5	226
1256.5	242
1265.49	252
1274.48	278
1283.45	340
1292.41	496
1301.36	1506
1310.29	1302
1319.22	564
1328.13	472
1337.04	348
1345.93	356
1354.81	364
1363.68	322
1372.54	532
1381.38	990
1390.22	412
1399.05	276
1407.86	270
1416.66	322
1425.46	432
1434.24	428
1443.01	502
1451.77	412
1460.52	368
1469.25	372
1477.98	340
1486.7	332
1495.4	292
1504.1	272
1512.78	284
1521.45	278
1530.11	296
1538.76	282
1547.41	290
1556.03	296
1564.65	280
1573.26	346
1581.86	464
1590.45	756
1599.02	1306
1607.59	1274
1616.14	744
1624.69	408
1633.22	308
1641.75	274
1650.26	254
1658.76	266
1667.26	238
1675.74	224
1684.21	242
1692.67	248
1701.12	290
1709.56	254
1717.99	244
1726.41	230
1734.82	220
1743.22	228
1751.61	226
1759.99	220
1768.36	224
1776.71	210
1785.06	216
1793.4	224
1801.73	220
1810.04	216
1818.35	224
1826.65	210
1834.94	220
1843.21	194
1851.48	214
1859.74	216
1867.98	228
1876.22	218
1884.45	222
1892.67	220
1900.87	240
1909.07	212
1917.26	222
1925.43	234
1933.6	218
1941.76	218
1949.91	228
1958.05	228
1966.17	216
1974.29	230
1982.4	206
1990.5	204
1998.59	210
2006.67	218
2014.74	212
2022.8	216
2030.85	200
2038.89	236
2046.92	204
2054.94	236
2062.95	232
2070.96	210
2078.95	218
2086.93	210
2094.91	224
2102.87	238
2110.83	198
2118.77	220
2126.71	228
2134.63	226
2142.55	224
2150.46	218
2158.35	198
2166.24	230
2174.12	208
2181.99	198
2189.85	214
2197.7	228
2205.55	214
2213.38	220
2221.2	226
2229.02	200
2236.82	234
2244.62	224
2252.4	210
2260.18	222
2267.95	220
2275.71	238
2283.46	222
2291.2	212
2298.93	230
2306.65	222
2314.37	226
2322.07	238
2329.77	220
2337.45	214
2345.13	222
2352.8	232
2360.46	210
2368.11	228
2375.75	222
2383.38	226
2391.01	228
2398.62	212
2406.23	238
2413.82	248
2421.41	208
2428.99	206
2436.56	216
2444.12	222
2449.79	206