File: Mixture_Classification/Jesse_Dataset_v2/Pure Raman/Polypropylene oxide/633nm/ps-ppo-7jan25-0,0000-map2_Y06_X03.txt
182.393	714
192.79	576
203.174	514
213.542	454
223.897	574
234.238	1272
244.566	888
254.878	470
265.178	296
275.463	282
285.734	386
295.992	612
306.236	448
316.467	370
326.684	376
336.887	424
347.075	350
357.251	330
367.413	328
377.562	318
387.697	254
397.819	232
407.926	278
418.02	344
428.101	240
438.169	184
448.223	178
458.264	168
468.291	232
478.306	390
488.307	426
498.294	228
508.269	246
518.23	318
528.177	368
538.113	772
548.034	434
557.942	490
567.838	2734
577.72	1550
587.589	598
597.446	452
607.289	244
617.119	204
626.936	270
636.741	320
646.533	244
656.313	196
666.078	176
675.831	166
685.571	164
695.299	160
705.014	172
714.716	248
724.406	206
734.082	200
743.746	258
753.398	290
763.037	172
772.664	194
782.278	212
791.879	196
801.467	192
811.044	202
820.608	230
830.16	786
839.699	390
849.226	264
858.741	218
868.243	214
877.731	176
887.209	186
896.674	178
906.128	190
915.569	178
924.997	178
934.414	190
943.818	242
953.211	494
962.59	882
971.958	434
981.314	218
990.659	234
999.99	174
1009.31	210
1018.62	228
1027.91	244
1037.2	284
1046.47	240
1055.73	194
1064.98	178
1074.22	192
1083.44	196
1092.65	224
1101.86	236
1111.05	834
1120.22	358
1129.39	246
1138.54	242
1147.69	216
1156.82	236
1165.94	280
1175.05	280
1184.14	546
1193.23	452
1202.3	462
1211.36	296
1220.41	238
1229.45	360
1238.48	252
1247.5	236
1256.5	228
1265.49	228
1274.48	254
1283.45	358
1292.41	482
1301.36	1530
1310.29	1304
1319.22	550
1328.13	450
1337.04	332
1345.93	340
1354.81	362
1363.68	308
1372.54	520
1381.38	1054
1390.22	410
1399.05	278
1407.86	266
1416.66	306
1425.46	432
1434.24	478
1443.01	514
1451.77	388
1460.52	358
1469.25	400
1477.98	352
1486.7	296
1495.4	294
1504.1	282
1512.78	280
1521.45	262
1530.11	282
1538.76	270
1547.41	260
1556.03	280
1564.65	302
1573.26	340
1581.86	442
1590.45	760
1599.02	1382
1607.59	1278
1616.14	740
1624.69	378
1633.22	290
1641.75	266
1650.26	244
1658.76	230
1667.26	238
1675.74	230
1684.21	232
1692.67	250
1701.12	258
1709.56	234
1717.99	230
1726.41	222
1734.82	228
1743.22	204
1751.61	204
1759.99	194
1768.36	208
1776.71	226
1785.06	226
1793.4	200
1801.73	194
1810.04	216
1818.35	208
1826.65	226
1834.94	226
1843.21	198
1851.48	214
1859.74	198
1867.98	202
1876.22	202
1884.45	198
1892.67	222
1900.87	188
1909.07	210
1917.26	204
1925.43	190
1933.6	216
1941.76	208
1949.91	222
1958.05	196
1966.17	210
1974.29	204
1982.4	212
1990.5	206
1998.59	210
2006.67	200
2014.74	206
2022.8	204
2030.85	204
2038.89	212
2046.92	206
2054.94	200
2062.95	198
2070.96	198
2078.95	206
2086.93	204
2094.91	196
2102.87	206
2110.83	218
2118.77	222
2126.71	198
2134.63	222
2142.55	198
2150.46	220
2158.35	192
2166.24	222
2174.12	188
2181.99	212
2189.85	208
2197.7	198
2205.55	194
2213.38	194
2221.2	210
2229.02	202
2236.82	210
2244.62	194
2252.4	204
2260.18	206
2267.95	212
2275.71	212
2283.46	208
2291.2	220
2298.93	208
2306.65	206
2314.37	212
2322.07	232
2329.77	202
2337.45	206
2345.13	206
2352.8	198
2360.46	224
2368.11	204
2375.75	202
2383.38	204
2391.01	226
2398.62	224
2406.23	206
2413.82	194
2421.41	212
2428.99	206
2436.56	188
2444.12	206
2449.79	202