File: Mixture_Classification/Jesse_Dataset_v2/Pure Raman/Polypropylene oxide/633nm/ps-ppo-7jan25-0,0000-map2_Y00_X06.txt
182.393	774
192.79	650
203.174	532
213.542	520
223.897	644
234.238	1320
244.566	902
254.878	480
265.178	338
275.463	330
285.734	410
295.992	668
306.236	508
316.467	414
326.684	448
336.887	432
347.075	404
357.251	402
367.413	368
377.562	390
387.697	282
397.819	294
407.926	340
418.02	390
428.101	280
438.169	220
448.223	226
458.264	214
468.291	274
478.306	444
488.307	488
498.294	288
508.269	314
518.23	350
528.177	438
538.113	828
548.034	490
557.942	580
567.838	2846
577.72	1582
587.589	660
597.446	518
607.289	294
617.119	258
626.936	328
636.741	370
646.533	282
656.313	260
666.078	216
675.831	238
685.571	222
695.299	224
705.014	248
714.716	282
724.406	252
734.082	272
743.746	312
753.398	344
763.037	270
772.664	266
782.278	274
791.879	238
801.467	246
811.044	262
820.608	296
830.16	858
839.699	464
849.226	322
858.741	294
868.243	232
877.731	250
887.209	244
896.674	236
906.128	240
915.569	226
924.997	226
934.414	256
943.818	292
953.211	604
962.59	932
971.958	510
981.314	304
990.659	296
999.99	252
1009.31	260
1018.62	286
1027.91	312
1037.2	340
1046.47	322
1055.73	264
1064.98	280
1074.22	248
1083.44	260
1092.65	272
1101.86	318
1111.05	906
1120.22	448
1129.39	314
1138.54	316
1147.69	266
1156.82	302
1165.94	318
1175.05	348
1184.14	632
1193.23	516
1202.3	540
1211.36	354
1220.41	294
1229.45	412
1238.48	310
1247.5	302
1256.5	296
1265.49	290
1274.48	340
1283.45	416
1292.41	548
1301.36	1648
1310.29	1378
1319.22	588
1328.13	548
1337.04	394
1345.93	422
1354.81	434
1363.68	382
1372.54	596
1381.38	1130
1390.22	438
1399.05	348
1407.86	368
1416.66	366
1425.46	500
1434.24	504
1443.01	556
1451.77	468
1460.52	434
1469.25	454
1477.98	434
1486.7	370
1495.4	358
1504.1	342
1512.78	334
1521.45	332
1530.11	326
1538.76	328
1547.41	354
1556.03	350
1564.65	384
1573.26	434
1581.86	522
1590.45	852
1599.02	1440
1607.59	1408
1616.14	788
1624.69	468
1633.22	350
1641.75	310
1650.26	304
1658.76	304
1667.26	306
1675.74	284
1684.21	296
1692.67	312
1701.12	308
1709.56	274
1717.99	298
1726.41	280
1734.82	268
1743.22	274
1751.61	284
1759.99	266
1768.36	260
1776.71	276
1785.06	276
1793.4	270
1801.73	270
1810.04	266
1818.35	278
1826.65	254
1834.94	266
1843.21	272
1851.48	270
1859.74	276
1867.98	254
1876.22	262
1884.45	276
1892.67	258
1900.87	270
1909.07	268
1917.26	264
1925.43	262
1933.6	272
1941.76	270
1949.91	266
1958.05	280
1966.17	250
1974.29	254
1982.4	280
1990.5	272
1998.59	262
2006.67	270
2014.74	258
2022.8	252
2030.85	266
2038.89	272
2046.92	264
2054.94	274
2062.95	270
2070.96	258
2078.95	278
2086.93	268
2094.91	260
2102.87	244
2110.83	256
2118.77	268
2126.71	240
2134.63	260
2142.55	258
2150.46	250
2158.35	278
2166.24	256
2174.12	258
2181.99	258
2189.85	258
2197.7	248
2205.55	266
2213.38	276
2221.2	266
2229.02	258
2236.82	264
2244.62	250
2252.4	262
2260.18	258
2267.95	254
2275.71	254
2283.46	264
2291.2	254
2298.93	252
2306.65	278
2314.37	258
2322.07	262
2329.77	262
2337.45	278
2345.13	250
2352.8	258
2360.46	254
2368.11	264
2375.75	254
2383.38	264
2391.01	262
2398.62	268
2406.23	272
2413.82	252
2421.41	272
2428.99	262
2436.56	238
2444.12	260
2449.79	262