File: Mixture_Classification/Jesse_Dataset_v2/Pure Raman/Polypropylene oxide/633nm/ps-ppo-7jan25-0,0000-map2_Y01_X02.txt
182.393	690
192.79	602
203.174	556
213.542	456
223.897	624
234.238	1312
244.566	910
254.878	458
265.178	298
275.463	296
285.734	382
295.992	618
306.236	448
316.467	382
326.684	398
336.887	410
347.075	366
357.251	380
367.413	344
377.562	320
387.697	254
397.819	252
407.926	280
418.02	358
428.101	228
438.169	196
448.223	178
458.264	178
468.291	234
478.306	422
488.307	472
498.294	242
508.269	250
518.23	302
528.177	396
538.113	820
548.034	478
557.942	534
567.838	2800
577.72	1582
587.589	622
597.446	480
607.289	250
617.119	212
626.936	270
636.741	336
646.533	248
656.313	216
666.078	180
675.831	176
685.571	182
695.299	174
705.014	198
714.716	244
724.406	218
734.082	220
743.746	286
753.398	298
763.037	204
772.664	208
782.278	224
791.879	182
801.467	208
811.044	236
820.608	254
830.16	830
839.699	408
849.226	268
858.741	232
868.243	196
877.731	196
887.209	192
896.674	200
906.128	192
915.569	182
924.997	188
934.414	202
943.818	256
953.211	570
962.59	892
971.958	466
981.314	242
990.659	242
999.99	208
1009.31	202
1018.62	228
1027.91	264
1037.2	274
1046.47	232
1055.73	212
1064.98	202
1074.22	198
1083.44	216
1092.65	218
1101.86	260
1111.05	880
1120.22	386
1129.39	282
1138.54	254
1147.69	228
1156.82	254
1165.94	276
1175.05	286
1184.14	544
1193.23	448
1202.3	480
1211.36	312
1220.41	248
1229.45	364
1238.48	262
1247.5	214
1256.5	240
1265.49	258
1274.48	282
1283.45	344
1292.41	514
1301.36	1630
1310.29	1326
1319.22	558
1328.13	504
1337.04	356
1345.93	366
1354.81	342
1363.68	304
1372.54	532
1381.38	1062
1390.22	410
1399.05	296
1407.86	278
1416.66	308
1425.46	420
1434.24	468
1443.01	526
1451.77	396
1460.52	394
1469.25	372
1477.98	360
1486.7	320
1495.4	274
1504.1	292
1512.78	302
1521.45	258
1530.11	294
1538.76	282
1547.41	284
1556.03	308
1564.65	318
1573.26	366
1581.86	462
1590.45	784
1599.02	1398
1607.59	1304
1616.14	768
1624.69	436
1633.22	296
1641.75	278
1650.26	248
1658.76	232
1667.26	260
1675.74	232
1684.21	230
1692.67	280
1701.12	238
1709.56	250
1717.99	230
1726.41	230
1734.82	228
1743.22	224
1751.61	212
1759.99	208
1768.36	220
1776.71	224
1785.06	220
1793.4	220
1801.73	210
1810.04	218
1818.35	218
1826.65	218
1834.94	204
1843.21	222
1851.48	220
1859.74	214
1867.98	206
1876.22	214
1884.45	220
1892.67	228
1900.87	196
1909.07	192
1917.26	236
1925.43	226
1933.6	216
1941.76	218
1949.91	222
1958.05	214
1966.17	234
1974.29	198
1982.4	222
1990.5	222
1998.59	206
2006.67	206
2014.74	234
2022.8	220
2030.85	200
2038.89	208
2046.92	208
2054.94	232
2062.95	238
2070.96	220
2078.95	224
2086.93	198
2094.91	218
2102.87	222
2110.83	210
2118.77	220
2126.71	216
2134.63	218
2142.55	228
2150.46	212
2158.35	204
2166.24	222
2174.12	226
2181.99	218
2189.85	216
2197.7	220
2205.55	204
2213.38	212
2221.2	202
2229.02	212
2236.82	202
2244.62	232
2252.4	224
2260.18	220
2267.95	224
2275.71	214
2283.46	196
2291.2	224
2298.93	204
2306.65	208
2314.37	228
2322.07	238
2329.77	208
2337.45	216
2345.13	224
2352.8	208
2360.46	218
2368.11	198
2375.75	216
2383.38	212
2391.01	220
2398.62	202
2406.23	228
2413.82	232
2421.41	220
2428.99	218
2436.56	208
2444.12	206
2449.79	202