File: Mixture_Classification/Jesse_Dataset_v2/Pure Raman/Polypropylene oxide/633nm/ps-ppo-7jan25-0,0000-map2_Y09_X05.txt
182.393	660
192.79	586
203.174	506
213.542	422
223.897	556
234.238	1212
244.566	870
254.878	478
265.178	326
275.463	266
285.734	380
295.992	616
306.236	450
316.467	374
326.684	368
336.887	394
347.075	340
357.251	362
367.413	308
377.562	296
387.697	230
397.819	222
407.926	280
418.02	350
428.101	234
438.169	184
448.223	164
458.264	184
468.291	234
478.306	382
488.307	450
498.294	242
508.269	246
518.23	322
528.177	386
538.113	764
548.034	462
557.942	508
567.838	2584
577.72	1544
587.589	594
597.446	434
607.289	230
617.119	204
626.936	254
636.741	308
646.533	232
656.313	202
666.078	172
675.831	168
685.571	168
695.299	178
705.014	166
714.716	254
724.406	210
734.082	210
743.746	254
753.398	288
763.037	202
772.664	196
782.278	222
791.879	194
801.467	186
811.044	212
820.608	224
830.16	810
839.699	402
849.226	274
858.741	248
868.243	206
877.731	202
887.209	174
896.674	176
906.128	196
915.569	180
924.997	168
934.414	218
943.818	228
953.211	568
962.59	912
971.958	462
981.314	260
990.659	238
999.99	186
1009.31	194
1018.62	232
1027.91	274
1037.2	266
1046.47	238
1055.73	218
1064.98	204
1074.22	208
1083.44	200
1092.65	220
1101.86	254
1111.05	814
1120.22	364
1129.39	276
1138.54	252
1147.69	238
1156.82	232
1165.94	258
1175.05	270
1184.14	532
1193.23	418
1202.3	458
1211.36	298
1220.41	236
1229.45	350
1238.48	252
1247.5	232
1256.5	204
1265.49	234
1274.48	276
1283.45	334
1292.41	488
1301.36	1534
1310.29	1310
1319.22	550
1328.13	472
1337.04	348
1345.93	370
1354.81	346
1363.68	302
1372.54	522
1381.38	1014
1390.22	394
1399.05	286
1407.86	288
1416.66	338
1425.46	430
1434.24	470
1443.01	496
1451.77	404
1460.52	360
1469.25	386
1477.98	350
1486.7	314
1495.4	294
1504.1	262
1512.78	262
1521.45	258
1530.11	258
1538.76	252
1547.41	304
1556.03	300
1564.65	296
1573.26	352
1581.86	430
1590.45	730
1599.02	1350
1607.59	1262
1616.14	756
1624.69	408
1633.22	308
1641.75	238
1650.26	234
1658.76	268
1667.26	220
1675.74	228
1684.21	224
1692.67	244
1701.12	262
1709.56	242
1717.99	248
1726.41	228
1734.82	216
1743.22	214
1751.61	218
1759.99	206
1768.36	210
1776.71	228
1785.06	206
1793.4	228
1801.73	218
1810.04	200
1818.35	224
1826.65	216
1834.94	204
1843.21	200
1851.48	208
1859.74	226
1867.98	208
1876.22	212
1884.45	204
1892.67	202
1900.87	206
1909.07	220
1917.26	220
1925.43	216
1933.6	214
1941.76	206
1949.91	224
1958.05	206
1966.17	198
1974.29	214
1982.4	222
1990.5	218
1998.59	210
2006.67	216
2014.74	216
2022.8	214
2030.85	188
2038.89	214
2046.92	210
2054.94	216
2062.95	206
2070.96	218
2078.95	224
2086.93	222
2094.91	212
2102.87	198
2110.83	198
2118.77	202
2126.71	210
2134.63	218
2142.55	214
2150.46	214
2158.35	226
2166.24	212
2174.12	220
2181.99	208
2189.85	194
2197.7	198
2205.55	220
2213.38	220
2221.2	204
2229.02	222
2236.82	216
2244.62	208
2252.4	202
2260.18	204
2267.95	208
2275.71	212
2283.46	206
2291.2	208
2298.93	218
2306.65	218
2314.37	222
2322.07	224
2329.77	210
2337.45	208
2345.13	228
2352.8	206
2360.46	216
2368.11	208
2375.75	208
2383.38	220
2391.01	222
2398.62	210
2406.23	216
2413.82	210
2421.41	208
2428.99	226
2436.56	206
2444.12	212
2449.79	212