File: Mixture_Classification/Jesse_Dataset_v2/Pure Raman/Polypropylene oxide/633nm/ps-ppo-7jan25-0,0000-map2_Y08_X06.txt
182.393	676
192.79	592
203.174	506
213.542	454
223.897	584
234.238	1274
244.566	870
254.878	472
265.178	318
275.463	302
285.734	378
295.992	628
306.236	446
316.467	362
326.684	368
336.887	408
347.075	352
357.251	376
367.413	328
377.562	332
387.697	246
397.819	242
407.926	274
418.02	338
428.101	240
438.169	200
448.223	180
458.264	182
468.291	238
478.306	376
488.307	442
498.294	232
508.269	264
518.23	324
528.177	390
538.113	770
548.034	452
557.942	516
567.838	2526
577.72	1598
587.589	592
597.446	420
607.289	250
617.119	216
626.936	260
636.741	344
646.533	252
656.313	216
666.078	190
675.831	166
685.571	180
695.299	158
705.014	196
714.716	244
724.406	214
734.082	218
743.746	264
753.398	286
763.037	212
772.664	200
782.278	206
791.879	204
801.467	188
811.044	204
820.608	242
830.16	758
839.699	398
849.226	274
858.741	230
868.243	178
877.731	186
887.209	192
896.674	178
906.128	178
915.569	172
924.997	186
934.414	204
943.818	248
953.211	514
962.59	858
971.958	432
981.314	252
990.659	226
999.99	212
1009.31	190
1018.62	238
1027.91	260
1037.2	298
1046.47	222
1055.73	204
1064.98	204
1074.22	204
1083.44	214
1092.65	210
1101.86	258
1111.05	816
1120.22	382
1129.39	252
1138.54	282
1147.69	236
1156.82	232
1165.94	282
1175.05	278
1184.14	528
1193.23	476
1202.3	470
1211.36	312
1220.41	250
1229.45	350
1238.48	248
1247.5	236
1256.5	218
1265.49	264
1274.48	272
1283.45	360
1292.41	492
1301.36	1540
1310.29	1326
1319.22	556
1328.13	454
1337.04	334
1345.93	368
1354.81	358
1363.68	306
1372.54	534
1381.38	1068
1390.22	384
1399.05	276
1407.86	282
1416.66	334
1425.46	414
1434.24	490
1443.01	502
1451.77	396
1460.52	368
1469.25	360
1477.98	370
1486.7	312
1495.4	294
1504.1	300
1512.78	292
1521.45	288
1530.11	284
1538.76	294
1547.41	298
1556.03	280
1564.65	304
1573.26	362
1581.86	468
1590.45	776
1599.02	1374
1607.59	1238
1616.14	762
1624.69	426
1633.22	306
1641.75	278
1650.26	254
1658.76	252
1667.26	246
1675.74	246
1684.21	244
1692.67	266
1701.12	258
1709.56	242
1717.99	242
1726.41	224
1734.82	250
1743.22	226
1751.61	224
1759.99	244
1768.36	224
1776.71	216
1785.06	196
1793.4	238
1801.73	210
1810.04	222
1818.35	222
1826.65	216
1834.94	216
1843.21	222
1851.48	210
1859.74	198
1867.98	214
1876.22	218
1884.45	224
1892.67	212
1900.87	224
1909.07	208
1917.26	210
1925.43	220
1933.6	222
1941.76	222
1949.91	216
1958.05	212
1966.17	230
1974.29	214
1982.4	220
1990.5	212
1998.59	236
2006.67	228
2014.74	214
2022.8	226
2030.85	228
2038.89	240
2046.92	216
2054.94	216
2062.95	214
2070.96	212
2078.95	212
2086.93	222
2094.91	228
2102.87	210
2110.83	218
2118.77	230
2126.71	228
2134.63	232
2142.55	230
2150.46	226
2158.35	224
2166.24	220
2174.12	204
2181.99	214
2189.85	224
2197.7	214
2205.55	216
2213.38	232
2221.2	200
2229.02	214
2236.82	220
2244.62	220
2252.4	232
2260.18	228
2267.95	226
2275.71	220
2283.46	226
2291.2	214
2298.93	200
2306.65	224
2314.37	222
2322.07	220
2329.77	212
2337.45	214
2345.13	218
2352.8	202
2360.46	228
2368.11	210
2375.75	220
2383.38	228
2391.01	230
2398.62	248
2406.23	218
2413.82	224
2421.41	196
2428.99	214
2436.56	222
2444.12	198
2449.79	222