File: Mixture_Classification/Jesse_Dataset_v2/Pure Raman/Polypropylene oxide/633nm/ps-ppo-7jan25-0,0000-map2_Y05_X09.txt
182.393	704
192.79	566
203.174	494
213.542	462
223.897	592
234.238	1248
244.566	866
254.878	470
265.178	302
275.463	272
285.734	388
295.992	616
306.236	480
316.467	394
326.684	380
336.887	386
347.075	342
357.251	384
367.413	322
377.562	304
387.697	266
397.819	216
407.926	268
418.02	354
428.101	224
438.169	198
448.223	172
458.264	170
468.291	232
478.306	388
488.307	458
498.294	212
508.269	254
518.23	324
528.177	374
538.113	794
548.034	476
557.942	498
567.838	2628
577.72	1534
587.589	584
597.446	446
607.289	238
617.119	216
626.936	286
636.741	324
646.533	240
656.313	214
666.078	168
675.831	164
685.571	184
695.299	156
705.014	186
714.716	226
724.406	192
734.082	198
743.746	256
753.398	296
763.037	210
772.664	200
782.278	212
791.879	192
801.467	190
811.044	214
820.608	230
830.16	784
839.699	372
849.226	286
858.741	250
868.243	208
877.731	204
887.209	184
896.674	174
906.128	184
915.569	172
924.997	186
934.414	198
943.818	248
953.211	518
962.59	868
971.958	438
981.314	230
990.659	244
999.99	208
1009.31	194
1018.62	222
1027.91	264
1037.2	288
1046.47	240
1055.73	216
1064.98	206
1074.22	206
1083.44	204
1092.65	210
1101.86	232
1111.05	860
1120.22	380
1129.39	254
1138.54	246
1147.69	232
1156.82	236
1165.94	270
1175.05	262
1184.14	572
1193.23	438
1202.3	466
1211.36	300
1220.41	234
1229.45	358
1238.48	268
1247.5	242
1256.5	226
1265.49	228
1274.48	278
1283.45	352
1292.41	494
1301.36	1550
1310.29	1300
1319.22	558
1328.13	464
1337.04	366
1345.93	364
1354.81	368
1363.68	290
1372.54	550
1381.38	1052
1390.22	394
1399.05	282
1407.86	284
1416.66	326
1425.46	414
1434.24	484
1443.01	522
1451.77	388
1460.52	364
1469.25	378
1477.98	356
1486.7	312
1495.4	306
1504.1	292
1512.78	298
1521.45	276
1530.11	270
1538.76	254
1547.41	264
1556.03	294
1564.65	304
1573.26	364
1581.86	480
1590.45	756
1599.02	1368
1607.59	1308
1616.14	732
1624.69	362
1633.22	284
1641.75	244
1650.26	260
1658.76	212
1667.26	234
1675.74	226
1684.21	218
1692.67	266
1701.12	250
1709.56	250
1717.99	238
1726.41	214
1734.82	218
1743.22	226
1751.61	236
1759.99	204
1768.36	218
1776.71	200
1785.06	222
1793.4	230
1801.73	208
1810.04	218
1818.35	220
1826.65	202
1834.94	208
1843.21	208
1851.48	198
1859.74	208
1867.98	210
1876.22	214
1884.45	212
1892.67	194
1900.87	224
1909.07	230
1917.26	212
1925.43	224
1933.6	212
1941.76	224
1949.91	206
1958.05	202
1966.17	228
1974.29	208
1982.4	230
1990.5	230
1998.59	232
2006.67	226
2014.74	204
2022.8	210
2030.85	230
2038.89	234
2046.92	222
2054.94	232
2062.95	214
2070.96	206
2078.95	222
2086.93	212
2094.91	216
2102.87	210
2110.83	224
2118.77	214
2126.71	220
2134.63	226
2142.55	196
2150.46	224
2158.35	224
2166.24	220
2174.12	236
2181.99	198
2189.85	222
2197.7	216
2205.55	234
2213.38	206
2221.2	216
2229.02	214
2236.82	204
2244.62	212
2252.4	208
2260.18	224
2267.95	200
2275.71	210
2283.46	214
2291.2	206
2298.93	222
2306.65	228
2314.37	212
2322.07	222
2329.77	232
2337.45	226
2345.13	222
2352.8	214
2360.46	218
2368.11	222
2375.75	210
2383.38	212
2391.01	230
2398.62	226
2406.23	220
2413.82	238
2421.41	208
2428.99	230
2436.56	216
2444.12	206
2449.79	208