File: Mixture_Classification/Jesse_Dataset_v2/Pure Raman/Polypropylene oxide/633nm/ps-ppo-7jan25-0,0000-map2_Y02_X02.txt
182.393	736
192.79	642
203.174	544
213.542	452
223.897	626
234.238	1314
244.566	882
254.878	498
265.178	314
275.463	280
285.734	388
295.992	626
306.236	454
316.467	378
326.684	380
336.887	424
347.075	360
357.251	366
367.413	326
377.562	328
387.697	260
397.819	246
407.926	252
418.02	372
428.101	228
438.169	190
448.223	182
458.264	180
468.291	264
478.306	404
488.307	450
498.294	242
508.269	258
518.23	324
528.177	426
538.113	808
548.034	460
557.942	502
567.838	2768
577.72	1594
587.589	636
597.446	464
607.289	240
617.119	234
626.936	284
636.741	340
646.533	266
656.313	220
666.078	178
675.831	166
685.571	176
695.299	176
705.014	180
714.716	250
724.406	194
734.082	214
743.746	290
753.398	328
763.037	218
772.664	210
782.278	232
791.879	208
801.467	204
811.044	222
820.608	232
830.16	840
839.699	410
849.226	272
858.741	252
868.243	218
877.731	206
887.209	182
896.674	180
906.128	184
915.569	184
924.997	202
934.414	190
943.818	264
953.211	558
962.59	924
971.958	462
981.314	260
990.659	242
999.99	204
1009.31	212
1018.62	244
1027.91	268
1037.2	272
1046.47	254
1055.73	218
1064.98	214
1074.22	196
1083.44	190
1092.65	224
1101.86	266
1111.05	852
1120.22	388
1129.39	248
1138.54	250
1147.69	216
1156.82	228
1165.94	294
1175.05	288
1184.14	564
1193.23	464
1202.3	472
1211.36	318
1220.41	242
1229.45	344
1238.48	268
1247.5	246
1256.5	242
1265.49	248
1274.48	288
1283.45	374
1292.41	486
1301.36	1542
1310.29	1346
1319.22	574
1328.13	462
1337.04	354
1345.93	366
1354.81	386
1363.68	318
1372.54	540
1381.38	1066
1390.22	422
1399.05	282
1407.86	290
1416.66	344
1425.46	402
1434.24	474
1443.01	522
1451.77	380
1460.52	382
1469.25	364
1477.98	352
1486.7	322
1495.4	290
1504.1	270
1512.78	284
1521.45	272
1530.11	282
1538.76	262
1547.41	284
1556.03	302
1564.65	322
1573.26	356
1581.86	446
1590.45	782
1599.02	1432
1607.59	1326
1616.14	752
1624.69	374
1633.22	302
1641.75	258
1650.26	274
1658.76	262
1667.26	226
1675.74	238
1684.21	242
1692.67	256
1701.12	250
1709.56	258
1717.99	244
1726.41	240
1734.82	210
1743.22	214
1751.61	208
1759.99	226
1768.36	228
1776.71	212
1785.06	216
1793.4	224
1801.73	208
1810.04	224
1818.35	216
1826.65	204
1834.94	206
1843.21	190
1851.48	206
1859.74	226
1867.98	222
1876.22	220
1884.45	206
1892.67	204
1900.87	220
1909.07	214
1917.26	222
1925.43	220
1933.6	212
1941.76	198
1949.91	232
1958.05	198
1966.17	216
1974.29	218
1982.4	206
1990.5	194
1998.59	200
2006.67	220
2014.74	234
2022.8	216
2030.85	216
2038.89	214
2046.92	234
2054.94	206
2062.95	218
2070.96	204
2078.95	216
2086.93	214
2094.91	210
2102.87	208
2110.83	200
2118.77	236
2126.71	210
2134.63	196
2142.55	200
2150.46	226
2158.35	214
2166.24	214
2174.12	210
2181.99	218
2189.85	200
2197.7	200
2205.55	198
2213.38	196
2221.2	208
2229.02	212
2236.82	194
2244.62	204
2252.4	224
2260.18	226
2267.95	210
2275.71	214
2283.46	202
2291.2	220
2298.93	218
2306.65	228
2314.37	214
2322.07	240
2329.77	234
2337.45	234
2345.13	214
2352.8	190
2360.46	224
2368.11	222
2375.75	210
2383.38	224
2391.01	226
2398.62	214
2406.23	216
2413.82	216
2421.41	188
2428.99	216
2436.56	218
2444.12	208
2449.79	218