File: Mixture_Classification/Jesse_Dataset_v2/Pure Raman/Polypropylene oxide/633nm/ps-ppo-7jan25-0,0000-map2_Y03_X06.txt
182.393	692
192.79	578
203.174	510
213.542	468
223.897	594
234.238	1254
244.566	896
254.878	472
265.178	314
275.463	272
285.734	392
295.992	640
306.236	466
316.467	358
326.684	378
336.887	406
347.075	354
357.251	380
367.413	324
377.562	340
387.697	246
397.819	228
407.926	284
418.02	348
428.101	246
438.169	178
448.223	162
458.264	180
468.291	240
478.306	404
488.307	446
498.294	240
508.269	248
518.23	298
528.177	358
538.113	760
548.034	460
557.942	522
567.838	2746
577.72	1562
587.589	606
597.446	428
607.289	240
617.119	214
626.936	274
636.741	306
646.533	244
656.313	200
666.078	180
675.831	150
685.571	166
695.299	160
705.014	182
714.716	246
724.406	192
734.082	206
743.746	252
753.398	310
763.037	208
772.664	192
782.278	212
791.879	182
801.467	172
811.044	188
820.608	244
830.16	792
839.699	406
849.226	256
858.741	226
868.243	192
877.731	174
887.209	176
896.674	180
906.128	176
915.569	170
924.997	190
934.414	190
943.818	248
953.211	514
962.59	872
971.958	444
981.314	244
990.659	244
999.99	202
1009.31	204
1018.62	220
1027.91	276
1037.2	278
1046.47	224
1055.73	190
1064.98	206
1074.22	202
1083.44	194
1092.65	202
1101.86	260
1111.05	816
1120.22	360
1129.39	262
1138.54	262
1147.69	236
1156.82	232
1165.94	268
1175.05	284
1184.14	546
1193.23	424
1202.3	460
1211.36	290
1220.41	240
1229.45	362
1238.48	238
1247.5	220
1256.5	212
1265.49	240
1274.48	256
1283.45	358
1292.41	486
1301.36	1532
1310.29	1348
1319.22	544
1328.13	458
1337.04	360
1345.93	366
1354.81	350
1363.68	290
1372.54	540
1381.38	1044
1390.22	398
1399.05	250
1407.86	282
1416.66	316
1425.46	426
1434.24	458
1443.01	508
1451.77	410
1460.52	400
1469.25	346
1477.98	354
1486.7	292
1495.4	296
1504.1	276
1512.78	262
1521.45	266
1530.11	258
1538.76	284
1547.41	270
1556.03	270
1564.65	280
1573.26	346
1581.86	446
1590.45	760
1599.02	1390
1607.59	1362
1616.14	722
1624.69	418
1633.22	282
1641.75	260
1650.26	240
1658.76	236
1667.26	230
1675.74	246
1684.21	246
1692.67	262
1701.12	240
1709.56	242
1717.99	216
1726.41	238
1734.82	202
1743.22	232
1751.61	210
1759.99	216
1768.36	216
1776.71	226
1785.06	196
1793.4	208
1801.73	194
1810.04	212
1818.35	214
1826.65	202
1834.94	206
1843.21	188
1851.48	206
1859.74	198
1867.98	214
1876.22	220
1884.45	208
1892.67	192
1900.87	192
1909.07	204
1917.26	200
1925.43	228
1933.6	218
1941.76	198
1949.91	202
1958.05	192
1966.17	200
1974.29	208
1982.4	202
1990.5	204
1998.59	210
2006.67	204
2014.74	202
2022.8	208
2030.85	204
2038.89	204
2046.92	206
2054.94	216
2062.95	200
2070.96	238
2078.95	204
2086.93	224
2094.91	204
2102.87	208
2110.83	210
2118.77	198
2126.71	224
2134.63	212
2142.55	194
2150.46	216
2158.35	198
2166.24	212
2174.12	222
2181.99	204
2189.85	208
2197.7	204
2205.55	198
2213.38	210
2221.2	210
2229.02	214
2236.82	226
2244.62	202
2252.4	224
2260.18	218
2267.95	196
2275.71	198
2283.46	208
2291.2	202
2298.93	202
2306.65	204
2314.37	220
2322.07	222
2329.77	198
2337.45	226
2345.13	206
2352.8	200
2360.46	204
2368.11	222
2375.75	210
2383.38	218
2391.01	206
2398.62	232
2406.23	216
2413.82	218
2421.41	204
2428.99	194
2436.56	212
2444.12	216
2449.79	192