File: Mixture_Classification/Jesse_Dataset_v2/Pure Raman/Polypropylene oxide/633nm/ps-ppo-7jan25-0,0000-map2_Y03_X07.txt
182.393	726
192.79	606
203.174	512
213.542	466
223.897	582
234.238	1276
244.566	860
254.878	458
265.178	346
275.463	294
285.734	394
295.992	624
306.236	464
316.467	344
326.684	374
336.887	390
347.075	354
357.251	334
367.413	336
377.562	300
387.697	246
397.819	222
407.926	302
418.02	370
428.101	238
438.169	212
448.223	162
458.264	168
468.291	222
478.306	380
488.307	476
498.294	238
508.269	264
518.23	310
528.177	386
538.113	752
548.034	424
557.942	514
567.838	2650
577.72	1534
587.589	596
597.446	474
607.289	232
617.119	234
626.936	262
636.741	306
646.533	218
656.313	210
666.078	180
675.831	170
685.571	172
695.299	162
705.014	166
714.716	224
724.406	194
734.082	208
743.746	250
753.398	278
763.037	188
772.664	198
782.278	222
791.879	192
801.467	176
811.044	210
820.608	234
830.16	820
839.699	384
849.226	258
858.741	228
868.243	216
877.731	170
887.209	178
896.674	170
906.128	182
915.569	166
924.997	182
934.414	208
943.818	252
953.211	542
962.59	902
971.958	426
981.314	254
990.659	228
999.99	208
1009.31	202
1018.62	228
1027.91	248
1037.2	270
1046.47	238
1055.73	222
1064.98	210
1074.22	194
1083.44	200
1092.65	212
1101.86	254
1111.05	830
1120.22	390
1129.39	230
1138.54	244
1147.69	250
1156.82	252
1165.94	276
1175.05	278
1184.14	532
1193.23	442
1202.3	466
1211.36	308
1220.41	254
1229.45	334
1238.48	256
1247.5	214
1256.5	228
1265.49	254
1274.48	242
1283.45	354
1292.41	496
1301.36	1584
1310.29	1328
1319.22	574
1328.13	482
1337.04	356
1345.93	360
1354.81	376
1363.68	312
1372.54	544
1381.38	1044
1390.22	420
1399.05	298
1407.86	270
1416.66	312
1425.46	408
1434.24	458
1443.01	486
1451.77	402
1460.52	372
1469.25	386
1477.98	358
1486.7	332
1495.4	280
1504.1	286
1512.78	292
1521.45	256
1530.11	248
1538.76	272
1547.41	304
1556.03	282
1564.65	282
1573.26	366
1581.86	450
1590.45	792
1599.02	1416
1607.59	1348
1616.14	758
1624.69	396
1633.22	302
1641.75	256
1650.26	242
1658.76	234
1667.26	232
1675.74	226
1684.21	224
1692.67	230
1701.12	248
1709.56	250
1717.99	226
1726.41	224
1734.82	208
1743.22	220
1751.61	206
1759.99	224
1768.36	214
1776.71	208
1785.06	194
1793.4	218
1801.73	214
1810.04	206
1818.35	204
1826.65	196
1834.94	200
1843.21	206
1851.48	198
1859.74	212
1867.98	208
1876.22	210
1884.45	210
1892.67	220
1900.87	206
1909.07	204
1917.26	206
1925.43	208
1933.6	212
1941.76	208
1949.91	212
1958.05	198
1966.17	198
1974.29	208
1982.4	208
1990.5	208
1998.59	208
2006.67	216
2014.74	184
2022.8	208
2030.85	222
2038.89	218
2046.92	214
2054.94	196
2062.95	208
2070.96	202
2078.95	228
2086.93	216
2094.91	206
2102.87	204
2110.83	198
2118.77	210
2126.71	200
2134.63	202
2142.55	218
2150.46	202
2158.35	204
2166.24	208
2174.12	200
2181.99	202
2189.85	196
2197.7	200
2205.55	192
2213.38	206
2221.2	208
2229.02	222
2236.82	208
2244.62	212
2252.4	210
2260.18	182
2267.95	188
2275.71	184
2283.46	208
2291.2	188
2298.93	192
2306.65	222
2314.37	204
2322.07	226
2329.77	200
2337.45	218
2345.13	216
2352.8	206
2360.46	220
2368.11	224
2375.75	188
2383.38	218
2391.01	222
2398.62	228
2406.23	206
2413.82	210
2421.41	202
2428.99	218
2436.56	206
2444.12	210
2449.79	216