File: Mixture_Classification/Jesse_Dataset_v2/Pure Raman/Polypropylene oxide/633nm/ps-ppo-7jan25-0,0000-map2_Y06_X09.txt
182.393	668
192.79	578
203.174	520
213.542	454
223.897	566
234.238	1238
244.566	848
254.878	450
265.178	298
275.463	292
285.734	392
295.992	606
306.236	464
316.467	348
326.684	368
336.887	390
347.075	350
357.251	372
367.413	306
377.562	304
387.697	254
397.819	236
407.926	270
418.02	316
428.101	244
438.169	180
448.223	166
458.264	174
468.291	242
478.306	390
488.307	456
498.294	236
508.269	266
518.23	328
528.177	386
538.113	762
548.034	440
557.942	516
567.838	2602
577.72	1498
587.589	574
597.446	460
607.289	240
617.119	214
626.936	252
636.741	324
646.533	250
656.313	206
666.078	164
675.831	172
685.571	164
695.299	174
705.014	188
714.716	256
724.406	198
734.082	222
743.746	286
753.398	296
763.037	192
772.664	196
782.278	226
791.879	208
801.467	190
811.044	216
820.608	244
830.16	776
839.699	374
849.226	276
858.741	248
868.243	198
877.731	184
887.209	186
896.674	172
906.128	182
915.569	170
924.997	188
934.414	210
943.818	270
953.211	536
962.59	858
971.958	410
981.314	244
990.659	222
999.99	208
1009.31	204
1018.62	234
1027.91	262
1037.2	286
1046.47	228
1055.73	210
1064.98	198
1074.22	206
1083.44	208
1092.65	198
1101.86	286
1111.05	774
1120.22	368
1129.39	238
1138.54	244
1147.69	226
1156.82	250
1165.94	284
1175.05	274
1184.14	520
1193.23	460
1202.3	468
1211.36	292
1220.41	240
1229.45	350
1238.48	238
1247.5	236
1256.5	246
1265.49	250
1274.48	262
1283.45	358
1292.41	460
1301.36	1582
1310.29	1334
1319.22	536
1328.13	452
1337.04	350
1345.93	366
1354.81	368
1363.68	300
1372.54	512
1381.38	1012
1390.22	396
1399.05	286
1407.86	278
1416.66	352
1425.46	424
1434.24	442
1443.01	496
1451.77	392
1460.52	392
1469.25	356
1477.98	360
1486.7	326
1495.4	302
1504.1	278
1512.78	276
1521.45	274
1530.11	274
1538.76	270
1547.41	272
1556.03	288
1564.65	306
1573.26	340
1581.86	440
1590.45	774
1599.02	1340
1607.59	1326
1616.14	758
1624.69	398
1633.22	290
1641.75	266
1650.26	230
1658.76	250
1667.26	248
1675.74	220
1684.21	248
1692.67	252
1701.12	256
1709.56	238
1717.99	240
1726.41	230
1734.82	224
1743.22	236
1751.61	210
1759.99	204
1768.36	226
1776.71	224
1785.06	214
1793.4	216
1801.73	224
1810.04	212
1818.35	208
1826.65	228
1834.94	192
1843.21	208
1851.48	220
1859.74	220
1867.98	224
1876.22	218
1884.45	204
1892.67	206
1900.87	202
1909.07	200
1917.26	230
1925.43	210
1933.6	224
1941.76	216
1949.91	216
1958.05	214
1966.17	208
1974.29	194
1982.4	222
1990.5	214
1998.59	230
2006.67	224
2014.74	222
2022.8	218
2030.85	220
2038.89	216
2046.92	212
2054.94	222
2062.95	214
2070.96	218
2078.95	220
2086.93	218
2094.91	206
2102.87	212
2110.83	208
2118.77	220
2126.71	206
2134.63	204
2142.55	200
2150.46	210
2158.35	206
2166.24	224
2174.12	212
2181.99	212
2189.85	210
2197.7	216
2205.55	208
2213.38	216
2221.2	210
2229.02	220
2236.82	196
2244.62	226
2252.4	224
2260.18	226
2267.95	224
2275.71	220
2283.46	224
2291.2	226
2298.93	210
2306.65	214
2314.37	226
2322.07	220
2329.77	226
2337.45	214
2345.13	216
2352.8	216
2360.46	220
2368.11	242
2375.75	222
2383.38	212
2391.01	208
2398.62	232
2406.23	214
2413.82	226
2421.41	210
2428.99	218
2436.56	212
2444.12	222
2449.79	212