File: Mixture_Classification/Jesse_Dataset_v2/Pure Raman/Polypropylene oxide/633nm/ps-ppo-7jan25-0,0000-map2_Y02_X07.txt
182.393	690
192.79	612
203.174	534
213.542	458
223.897	596
234.238	1296
244.566	886
254.878	496
265.178	322
275.463	280
285.734	372
295.992	636
306.236	472
316.467	374
326.684	370
336.887	408
347.075	344
357.251	370
367.413	326
377.562	306
387.697	240
397.819	222
407.926	294
418.02	370
428.101	234
438.169	202
448.223	180
458.264	174
468.291	228
478.306	412
488.307	438
498.294	240
508.269	250
518.23	328
528.177	378
538.113	772
548.034	462
557.942	506
567.838	2720
577.72	1606
587.589	628
597.446	442
607.289	254
617.119	216
626.936	274
636.741	316
646.533	256
656.313	200
666.078	180
675.831	162
685.571	164
695.299	176
705.014	190
714.716	252
724.406	218
734.082	216
743.746	278
753.398	300
763.037	212
772.664	202
782.278	218
791.879	210
801.467	194
811.044	218
820.608	232
830.16	798
839.699	378
849.226	270
858.741	244
868.243	182
877.731	180
887.209	188
896.674	182
906.128	194
915.569	194
924.997	176
934.414	206
943.818	250
953.211	550
962.59	906
971.958	446
981.314	248
990.659	242
999.99	212
1009.31	202
1018.62	228
1027.91	288
1037.2	304
1046.47	224
1055.73	202
1064.98	200
1074.22	212
1083.44	204
1092.65	218
1101.86	250
1111.05	806
1120.22	370
1129.39	264
1138.54	252
1147.69	240
1156.82	246
1165.94	268
1175.05	294
1184.14	570
1193.23	460
1202.3	496
1211.36	310
1220.41	254
1229.45	350
1238.48	232
1247.5	218
1256.5	228
1265.49	230
1274.48	272
1283.45	366
1292.41	526
1301.36	1612
1310.29	1356
1319.22	554
1328.13	474
1337.04	350
1345.93	362
1354.81	372
1363.68	320
1372.54	534
1381.38	1048
1390.22	402
1399.05	292
1407.86	274
1416.66	316
1425.46	416
1434.24	466
1443.01	510
1451.77	398
1460.52	374
1469.25	372
1477.98	354
1486.7	296
1495.4	288
1504.1	290
1512.78	282
1521.45	284
1530.11	280
1538.76	276
1547.41	296
1556.03	294
1564.65	296
1573.26	366
1581.86	438
1590.45	772
1599.02	1390
1607.59	1260
1616.14	752
1624.69	376
1633.22	292
1641.75	264
1650.26	244
1658.76	226
1667.26	232
1675.74	218
1684.21	230
1692.67	250
1701.12	250
1709.56	232
1717.99	228
1726.41	218
1734.82	206
1743.22	210
1751.61	228
1759.99	210
1768.36	202
1776.71	228
1785.06	216
1793.4	226
1801.73	216
1810.04	210
1818.35	206
1826.65	194
1834.94	202
1843.21	208
1851.48	204
1859.74	204
1867.98	198
1876.22	218
1884.45	214
1892.67	230
1900.87	210
1909.07	196
1917.26	208
1925.43	214
1933.6	222
1941.76	216
1949.91	210
1958.05	202
1966.17	198
1974.29	188
1982.4	202
1990.5	200
1998.59	198
2006.67	210
2014.74	210
2022.8	208
2030.85	204
2038.89	200
2046.92	232
2054.94	216
2062.95	218
2070.96	216
2078.95	224
2086.93	198
2094.91	200
2102.87	222
2110.83	198
2118.77	198
2126.71	210
2134.63	206
2142.55	200
2150.46	200
2158.35	220
2166.24	214
2174.12	216
2181.99	218
2189.85	194
2197.7	218
2205.55	216
2213.38	200
2221.2	202
2229.02	222
2236.82	216
2244.62	214
2252.4	216
2260.18	206
2267.95	218
2275.71	230
2283.46	208
2291.2	188
2298.93	214
2306.65	222
2314.37	230
2322.07	208
2329.77	208
2337.45	216
2345.13	196
2352.8	214
2360.46	196
2368.11	216
2375.75	222
2383.38	224
2391.01	218
2398.62	224
2406.23	220
2413.82	230
2421.41	210
2428.99	216
2436.56	200
2444.12	202
2449.79	212