File: Mixture_Classification/Jesse_Dataset_v2/Pure Raman/Polypropylene oxide/633nm/ps-ppo-7jan25-0,0000-map2_Y01_X07.txt
182.393	732
192.79	596
203.174	510
213.542	472
223.897	638
234.238	1302
244.566	906
254.878	490
265.178	324
275.463	282
285.734	410
295.992	612
306.236	468
316.467	392
326.684	376
336.887	400
347.075	362
357.251	390
367.413	334
377.562	300
387.697	258
397.819	232
407.926	292
418.02	344
428.101	226
438.169	206
448.223	174
458.264	182
468.291	258
478.306	396
488.307	472
498.294	242
508.269	266
518.23	328
528.177	404
538.113	794
548.034	468
557.942	508
567.838	2796
577.72	1558
587.589	634
597.446	444
607.289	248
617.119	240
626.936	256
636.741	316
646.533	250
656.313	224
666.078	184
675.831	162
685.571	180
695.299	146
705.014	188
714.716	258
724.406	192
734.082	214
743.746	290
753.398	300
763.037	192
772.664	200
782.278	214
791.879	202
801.467	190
811.044	196
820.608	240
830.16	814
839.699	418
849.226	264
858.741	242
868.243	206
877.731	192
887.209	198
896.674	186
906.128	178
915.569	176
924.997	176
934.414	224
943.818	270
953.211	544
962.59	908
971.958	444
981.314	246
990.659	226
999.99	218
1009.31	210
1018.62	228
1027.91	296
1037.2	278
1046.47	236
1055.73	216
1064.98	208
1074.22	206
1083.44	206
1092.65	216
1101.86	246
1111.05	840
1120.22	372
1129.39	256
1138.54	262
1147.69	246
1156.82	252
1165.94	286
1175.05	282
1184.14	542
1193.23	452
1202.3	470
1211.36	306
1220.41	258
1229.45	332
1238.48	244
1247.5	244
1256.5	226
1265.49	262
1274.48	272
1283.45	376
1292.41	498
1301.36	1580
1310.29	1310
1319.22	576
1328.13	484
1337.04	348
1345.93	378
1354.81	366
1363.68	330
1372.54	568
1381.38	1048
1390.22	428
1399.05	280
1407.86	272
1416.66	312
1425.46	426
1434.24	502
1443.01	506
1451.77	414
1460.52	360
1469.25	412
1477.98	368
1486.7	344
1495.4	294
1504.1	284
1512.78	262
1521.45	282
1530.11	272
1538.76	270
1547.41	302
1556.03	284
1564.65	306
1573.26	346
1581.86	452
1590.45	772
1599.02	1392
1607.59	1282
1616.14	780
1624.69	396
1633.22	302
1641.75	286
1650.26	258
1658.76	230
1667.26	240
1675.74	236
1684.21	236
1692.67	242
1701.12	240
1709.56	236
1717.99	220
1726.41	228
1734.82	224
1743.22	216
1751.61	206
1759.99	218
1768.36	228
1776.71	214
1785.06	226
1793.4	232
1801.73	220
1810.04	226
1818.35	212
1826.65	216
1834.94	204
1843.21	220
1851.48	212
1859.74	214
1867.98	224
1876.22	226
1884.45	214
1892.67	202
1900.87	212
1909.07	212
1917.26	224
1925.43	228
1933.6	238
1941.76	212
1949.91	218
1958.05	198
1966.17	208
1974.29	216
1982.4	228
1990.5	202
1998.59	204
2006.67	222
2014.74	224
2022.8	224
2030.85	208
2038.89	228
2046.92	212
2054.94	214
2062.95	224
2070.96	242
2078.95	196
2086.93	218
2094.91	208
2102.87	220
2110.83	202
2118.77	218
2126.71	210
2134.63	202
2142.55	208
2150.46	218
2158.35	216
2166.24	206
2174.12	218
2181.99	224
2189.85	216
2197.7	180
2205.55	220
2213.38	204
2221.2	200
2229.02	216
2236.82	198
2244.62	216
2252.4	226
2260.18	228
2267.95	206
2275.71	224
2283.46	226
2291.2	198
2298.93	214
2306.65	212
2314.37	204
2322.07	224
2329.77	212
2337.45	226
2345.13	228
2352.8	208
2360.46	218
2368.11	222
2375.75	238
2383.38	224
2391.01	212
2398.62	226
2406.23	230
2413.82	218
2421.41	220
2428.99	212
2436.56	212
2444.12	196
2449.79	210