File: Mixture_Classification/Jesse_Dataset_v2/Pure Raman/Polypropylene oxide/633nm/ps-ppo-7jan25-0,0000-map2_Y07_X04.txt
182.393	696
192.79	592
203.174	486
213.542	444
223.897	568
234.238	1272
244.566	878
254.878	462
265.178	296
275.463	274
285.734	332
295.992	592
306.236	466
316.467	354
326.684	360
336.887	374
347.075	340
357.251	352
367.413	328
377.562	304
387.697	226
397.819	226
407.926	280
418.02	344
428.101	196
438.169	184
448.223	166
458.264	168
468.291	230
478.306	380
488.307	450
498.294	258
508.269	254
518.23	306
528.177	376
538.113	738
548.034	456
557.942	494
567.838	2652
577.72	1528
587.589	570
597.446	410
607.289	224
617.119	200
626.936	260
636.741	302
646.533	228
656.313	190
666.078	162
675.831	166
685.571	156
695.299	162
705.014	182
714.716	240
724.406	204
734.082	202
743.746	264
753.398	294
763.037	196
772.664	184
782.278	194
791.879	182
801.467	184
811.044	192
820.608	242
830.16	762
839.699	402
849.226	268
858.741	234
868.243	196
877.731	186
887.209	172
896.674	168
906.128	180
915.569	176
924.997	168
934.414	198
943.818	226
953.211	542
962.59	864
971.958	448
981.314	230
990.659	236
999.99	190
1009.31	192
1018.62	214
1027.91	264
1037.2	270
1046.47	230
1055.73	188
1064.98	186
1074.22	200
1083.44	196
1092.65	198
1101.86	236
1111.05	782
1120.22	386
1129.39	264
1138.54	228
1147.69	220
1156.82	232
1165.94	252
1175.05	266
1184.14	540
1193.23	438
1202.3	446
1211.36	308
1220.41	226
1229.45	344
1238.48	256
1247.5	216
1256.5	232
1265.49	242
1274.48	256
1283.45	354
1292.41	476
1301.36	1556
1310.29	1296
1319.22	540
1328.13	432
1337.04	326
1345.93	358
1354.81	342
1363.68	284
1372.54	518
1381.38	1038
1390.22	396
1399.05	278
1407.86	268
1416.66	326
1425.46	402
1434.24	440
1443.01	464
1451.77	380
1460.52	376
1469.25	374
1477.98	350
1486.7	314
1495.4	286
1504.1	262
1512.78	290
1521.45	244
1530.11	246
1538.76	278
1547.41	276
1556.03	286
1564.65	296
1573.26	336
1581.86	434
1590.45	758
1599.02	1344
1607.59	1246
1616.14	710
1624.69	390
1633.22	288
1641.75	254
1650.26	244
1658.76	232
1667.26	220
1675.74	230
1684.21	246
1692.67	250
1701.12	256
1709.56	234
1717.99	234
1726.41	228
1734.82	234
1743.22	202
1751.61	228
1759.99	200
1768.36	196
1776.71	210
1785.06	214
1793.4	218
1801.73	210
1810.04	202
1818.35	206
1826.65	202
1834.94	206
1843.21	206
1851.48	198
1859.74	210
1867.98	200
1876.22	220
1884.45	216
1892.67	200
1900.87	200
1909.07	222
1917.26	208
1925.43	200
1933.6	210
1941.76	226
1949.91	214
1958.05	210
1966.17	216
1974.29	214
1982.4	188
1990.5	218
1998.59	206
2006.67	218
2014.74	208
2022.8	196
2030.85	200
2038.89	214
2046.92	202
2054.94	204
2062.95	214
2070.96	204
2078.95	212
2086.93	208
2094.91	198
2102.87	214
2110.83	224
2118.77	214
2126.71	200
2134.63	238
2142.55	216
2150.46	212
2158.35	224
2166.24	206
2174.12	214
2181.99	190
2189.85	218
2197.7	218
2205.55	202
2213.38	214
2221.2	196
2229.02	206
2236.82	218
2244.62	218
2252.4	228
2260.18	200
2267.95	218
2275.71	216
2283.46	214
2291.2	206
2298.93	222
2306.65	226
2314.37	220
2322.07	220
2329.77	206
2337.45	214
2345.13	216
2352.8	196
2360.46	216
2368.11	218
2375.75	224
2383.38	196
2391.01	232
2398.62	220
2406.23	210
2413.82	214
2421.41	208
2428.99	210
2436.56	210
2444.12	220
2449.79	214