File: Mixture_Classification/Jesse_Dataset_v2/Pure Raman/Polypropylene oxide/633nm/ps-ppo-7jan25-0,0000-map2_Y06_X04.txt
182.393	700
192.79	614
203.174	508
213.542	434
223.897	598
234.238	1260
244.566	830
254.878	470
265.178	314
275.463	272
285.734	368
295.992	620
306.236	464
316.467	356
326.684	368
336.887	398
347.075	336
357.251	340
367.413	330
377.562	294
387.697	262
397.819	228
407.926	272
418.02	330
428.101	224
438.169	180
448.223	172
458.264	158
468.291	230
478.306	380
488.307	416
498.294	234
508.269	246
518.23	310
528.177	380
538.113	772
548.034	436
557.942	494
567.838	2632
577.72	1560
587.589	576
597.446	462
607.289	240
617.119	210
626.936	236
636.741	308
646.533	236
656.313	198
666.078	164
675.831	162
685.571	170
695.299	156
705.014	164
714.716	228
724.406	196
734.082	192
743.746	280
753.398	300
763.037	186
772.664	206
782.278	218
791.879	192
801.467	192
811.044	202
820.608	216
830.16	796
839.699	394
849.226	242
858.741	226
868.243	192
877.731	180
887.209	176
896.674	170
906.128	172
915.569	174
924.997	166
934.414	210
943.818	242
953.211	510
962.59	870
971.958	446
981.314	214
990.659	216
999.99	198
1009.31	196
1018.62	208
1027.91	266
1037.2	280
1046.47	208
1055.73	192
1064.98	210
1074.22	188
1083.44	202
1092.65	202
1101.86	236
1111.05	818
1120.22	404
1129.39	248
1138.54	232
1147.69	230
1156.82	242
1165.94	272
1175.05	250
1184.14	544
1193.23	432
1202.3	454
1211.36	288
1220.41	240
1229.45	330
1238.48	242
1247.5	210
1256.5	222
1265.49	242
1274.48	256
1283.45	340
1292.41	476
1301.36	1502
1310.29	1314
1319.22	550
1328.13	438
1337.04	324
1345.93	344
1354.81	372
1363.68	298
1372.54	514
1381.38	1050
1390.22	388
1399.05	288
1407.86	272
1416.66	322
1425.46	404
1434.24	454
1443.01	482
1451.77	384
1460.52	370
1469.25	346
1477.98	356
1486.7	314
1495.4	296
1504.1	276
1512.78	274
1521.45	276
1530.11	252
1538.76	264
1547.41	262
1556.03	288
1564.65	288
1573.26	338
1581.86	458
1590.45	764
1599.02	1350
1607.59	1298
1616.14	734
1624.69	392
1633.22	288
1641.75	248
1650.26	232
1658.76	246
1667.26	222
1675.74	222
1684.21	216
1692.67	220
1701.12	250
1709.56	236
1717.99	228
1726.41	206
1734.82	198
1743.22	210
1751.61	198
1759.99	208
1768.36	210
1776.71	232
1785.06	204
1793.4	196
1801.73	198
1810.04	208
1818.35	214
1826.65	204
1834.94	198
1843.21	204
1851.48	208
1859.74	220
1867.98	204
1876.22	192
1884.45	202
1892.67	202
1900.87	194
1909.07	202
1917.26	192
1925.43	186
1933.6	188
1941.76	202
1949.91	200
1958.05	202
1966.17	214
1974.29	210
1982.4	204
1990.5	210
1998.59	176
2006.67	190
2014.74	198
2022.8	214
2030.85	208
2038.89	202
2046.92	200
2054.94	172
2062.95	208
2070.96	210
2078.95	212
2086.93	196
2094.91	196
2102.87	214
2110.83	200
2118.77	188
2126.71	188
2134.63	212
2142.55	206
2150.46	196
2158.35	190
2166.24	198
2174.12	210
2181.99	192
2189.85	200
2197.7	206
2205.55	204
2213.38	190
2221.2	224
2229.02	200
2236.82	196
2244.62	206
2252.4	204
2260.18	202
2267.95	196
2275.71	200
2283.46	220
2291.2	196
2298.93	182
2306.65	216
2314.37	208
2322.07	208
2329.77	210
2337.45	204
2345.13	216
2352.8	204
2360.46	200
2368.11	204
2375.75	190
2383.38	210
2391.01	228
2398.62	206
2406.23	210
2413.82	226
2421.41	208
2428.99	220
2436.56	200
2444.12	216
2449.79	212