File: Mixture_Classification/Jesse_Dataset_v2/Pure Raman/Polypropylene oxide/633nm/ps-ppo-7jan25-0,0000-map2_Y00_X04.txt
182.393	748
192.79	664
203.174	566
213.542	490
223.897	648
234.238	1384
244.566	936
254.878	504
265.178	330
275.463	328
285.734	418
295.992	656
306.236	492
316.467	414
326.684	402
336.887	416
347.075	372
357.251	394
367.413	336
377.562	348
387.697	280
397.819	256
407.926	296
418.02	376
428.101	242
438.169	212
448.223	206
458.264	210
468.291	274
478.306	420
488.307	484
498.294	278
508.269	292
518.23	352
528.177	446
538.113	844
548.034	462
557.942	542
567.838	2786
577.72	1526
587.589	662
597.446	494
607.289	294
617.119	254
626.936	322
636.741	356
646.533	280
656.313	262
666.078	214
675.831	202
685.571	186
695.299	210
705.014	206
714.716	282
724.406	252
734.082	250
743.746	334
753.398	322
763.037	228
772.664	214
782.278	252
791.879	246
801.467	238
811.044	244
820.608	272
830.16	856
839.699	432
849.226	276
858.741	278
868.243	232
877.731	232
887.209	226
896.674	204
906.128	212
915.569	222
924.997	224
934.414	246
943.818	318
953.211	588
962.59	928
971.958	510
981.314	298
990.659	282
999.99	242
1009.31	234
1018.62	254
1027.91	278
1037.2	304
1046.47	294
1055.73	246
1064.98	236
1074.22	242
1083.44	258
1092.65	252
1101.86	290
1111.05	870
1120.22	430
1129.39	318
1138.54	288
1147.69	280
1156.82	290
1165.94	276
1175.05	320
1184.14	620
1193.23	480
1202.3	506
1211.36	338
1220.41	290
1229.45	400
1238.48	292
1247.5	268
1256.5	278
1265.49	304
1274.48	300
1283.45	402
1292.41	516
1301.36	1624
1310.29	1374
1319.22	584
1328.13	526
1337.04	408
1345.93	404
1354.81	396
1363.68	354
1372.54	600
1381.38	1102
1390.22	432
1399.05	318
1407.86	340
1416.66	362
1425.46	488
1434.24	498
1443.01	554
1451.77	436
1460.52	416
1469.25	418
1477.98	398
1486.7	358
1495.4	318
1504.1	316
1512.78	326
1521.45	312
1530.11	324
1538.76	334
1547.41	322
1556.03	348
1564.65	346
1573.26	388
1581.86	480
1590.45	830
1599.02	1440
1607.59	1356
1616.14	774
1624.69	444
1633.22	354
1641.75	300
1650.26	298
1658.76	262
1667.26	272
1675.74	276
1684.21	296
1692.67	276
1701.12	286
1709.56	276
1717.99	278
1726.41	292
1734.82	266
1743.22	240
1751.61	258
1759.99	234
1768.36	270
1776.71	248
1785.06	262
1793.4	254
1801.73	248
1810.04	254
1818.35	260
1826.65	252
1834.94	250
1843.21	270
1851.48	252
1859.74	272
1867.98	258
1876.22	236
1884.45	266
1892.67	260
1900.87	244
1909.07	262
1917.26	262
1925.43	274
1933.6	252
1941.76	248
1949.91	270
1958.05	264
1966.17	258
1974.29	242
1982.4	258
1990.5	252
1998.59	258
2006.67	250
2014.74	276
2022.8	248
2030.85	242
2038.89	262
2046.92	260
2054.94	238
2062.95	236
2070.96	250
2078.95	238
2086.93	262
2094.91	264
2102.87	246
2110.83	250
2118.77	248
2126.71	266
2134.63	266
2142.55	246
2150.46	240
2158.35	252
2166.24	250
2174.12	236
2181.99	252
2189.85	244
2197.7	240
2205.55	248
2213.38	222
2221.2	246
2229.02	262
2236.82	244
2244.62	248
2252.4	248
2260.18	242
2267.95	244
2275.71	252
2283.46	238
2291.2	242
2298.93	254
2306.65	240
2314.37	270
2322.07	268
2329.77	258
2337.45	256
2345.13	244
2352.8	250
2360.46	236
2368.11	242
2375.75	238
2383.38	268
2391.01	250
2398.62	268
2406.23	256
2413.82	228
2421.41	250
2428.99	242
2436.56	246
2444.12	244
2449.79	238