File: Mixture_Classification/Jesse_Dataset_v2/Pure Raman/Polypropylene oxide/633nm/ps-ppo-7jan25-0,0000-map2_Y00_X05.txt
182.393	746
192.79	650
203.174	536
213.542	474
223.897	642
234.238	1288
244.566	896
254.878	492
265.178	346
275.463	304
285.734	396
295.992	652
306.236	524
316.467	396
326.684	412
336.887	438
347.075	372
357.251	416
367.413	366
377.562	370
387.697	292
397.819	254
407.926	320
418.02	402
428.101	278
438.169	224
448.223	214
458.264	232
468.291	274
478.306	418
488.307	510
498.294	270
508.269	318
518.23	370
528.177	436
538.113	830
548.034	506
557.942	558
567.838	2772
577.72	1586
587.589	630
597.446	478
607.289	276
617.119	252
626.936	304
636.741	360
646.533	288
656.313	228
666.078	234
675.831	204
685.571	234
695.299	212
705.014	218
714.716	304
724.406	234
734.082	250
743.746	324
753.398	356
763.037	266
772.664	232
782.278	252
791.879	224
801.467	224
811.044	248
820.608	290
830.16	840
839.699	442
849.226	318
858.741	284
868.243	258
877.731	236
887.209	206
896.674	226
906.128	226
915.569	218
924.997	222
934.414	238
943.818	294
953.211	576
962.59	936
971.958	470
981.314	278
990.659	276
999.99	274
1009.31	250
1018.62	276
1027.91	304
1037.2	308
1046.47	264
1055.73	250
1064.98	256
1074.22	228
1083.44	260
1092.65	272
1101.86	300
1111.05	898
1120.22	438
1129.39	326
1138.54	304
1147.69	262
1156.82	282
1165.94	318
1175.05	346
1184.14	618
1193.23	490
1202.3	554
1211.36	360
1220.41	314
1229.45	416
1238.48	302
1247.5	286
1256.5	266
1265.49	294
1274.48	326
1283.45	404
1292.41	526
1301.36	1668
1310.29	1360
1319.22	602
1328.13	516
1337.04	402
1345.93	418
1354.81	406
1363.68	356
1372.54	592
1381.38	1102
1390.22	436
1399.05	342
1407.86	336
1416.66	374
1425.46	436
1434.24	542
1443.01	558
1451.77	466
1460.52	444
1469.25	402
1477.98	400
1486.7	364
1495.4	364
1504.1	340
1512.78	318
1521.45	326
1530.11	332
1538.76	330
1547.41	338
1556.03	350
1564.65	350
1573.26	400
1581.86	516
1590.45	850
1599.02	1440
1607.59	1360
1616.14	780
1624.69	440
1633.22	358
1641.75	318
1650.26	286
1658.76	266
1667.26	288
1675.74	288
1684.21	256
1692.67	306
1701.12	310
1709.56	288
1717.99	268
1726.41	280
1734.82	280
1743.22	282
1751.61	268
1759.99	256
1768.36	238
1776.71	256
1785.06	262
1793.4	266
1801.73	266
1810.04	264
1818.35	260
1826.65	240
1834.94	238
1843.21	256
1851.48	250
1859.74	236
1867.98	252
1876.22	268
1884.45	264
1892.67	254
1900.87	274
1909.07	254
1917.26	280
1925.43	250
1933.6	254
1941.76	278
1949.91	240
1958.05	254
1966.17	244
1974.29	250
1982.4	258
1990.5	270
1998.59	268
2006.67	244
2014.74	254
2022.8	254
2030.85	244
2038.89	248
2046.92	252
2054.94	258
2062.95	248
2070.96	264
2078.95	250
2086.93	272
2094.91	262
2102.87	258
2110.83	264
2118.77	250
2126.71	248
2134.63	234
2142.55	262
2150.46	252
2158.35	262
2166.24	250
2174.12	248
2181.99	246
2189.85	248
2197.7	248
2205.55	238
2213.38	246
2221.2	240
2229.02	242
2236.82	264
2244.62	254
2252.4	268
2260.18	260
2267.95	256
2275.71	252
2283.46	244
2291.2	250
2298.93	258
2306.65	238
2314.37	268
2322.07	252
2329.77	248
2337.45	260
2345.13	238
2352.8	248
2360.46	256
2368.11	232
2375.75	252
2383.38	268
2391.01	270
2398.62	260
2406.23	260
2413.82	256
2421.41	266
2428.99	256
2436.56	242
2444.12	240
2449.79	234