File: Mixture_Classification/Jesse_Dataset_v2/Pure Raman/Polypropylene oxide/633nm/ps-ppo-7jan25-0,0000-map2_Y01_X10.txt
182.393	744
192.79	646
203.174	558
213.542	470
223.897	660
234.238	1348
244.566	902
254.878	496
265.178	364
275.463	304
285.734	408
295.992	652
306.236	514
316.467	400
326.684	416
336.887	436
347.075	354
357.251	388
367.413	360
377.562	354
387.697	282
397.819	250
407.926	314
418.02	384
428.101	270
438.169	216
448.223	192
458.264	198
468.291	262
478.306	428
488.307	492
498.294	268
508.269	288
518.23	338
528.177	408
538.113	852
548.034	492
557.942	570
567.838	2776
577.72	1582
587.589	634
597.446	488
607.289	270
617.119	264
626.936	300
636.741	358
646.533	278
656.313	242
666.078	188
675.831	190
685.571	198
695.299	194
705.014	216
714.716	280
724.406	222
734.082	238
743.746	290
753.398	344
763.037	244
772.664	224
782.278	232
791.879	214
801.467	224
811.044	248
820.608	252
830.16	840
839.699	436
849.226	286
858.741	272
868.243	222
877.731	222
887.209	208
896.674	196
906.128	216
915.569	200
924.997	214
934.414	222
943.818	274
953.211	564
962.59	936
971.958	488
981.314	266
990.659	256
999.99	222
1009.31	228
1018.62	262
1027.91	290
1037.2	318
1046.47	286
1055.73	244
1064.98	246
1074.22	250
1083.44	204
1092.65	236
1101.86	278
1111.05	888
1120.22	408
1129.39	290
1138.54	276
1147.69	258
1156.82	284
1165.94	300
1175.05	314
1184.14	614
1193.23	462
1202.3	502
1211.36	340
1220.41	306
1229.45	360
1238.48	278
1247.5	260
1256.5	264
1265.49	276
1274.48	290
1283.45	406
1292.41	546
1301.36	1642
1310.29	1364
1319.22	594
1328.13	518
1337.04	396
1345.93	392
1354.81	402
1363.68	354
1372.54	594
1381.38	1068
1390.22	444
1399.05	300
1407.86	304
1416.66	372
1425.46	430
1434.24	516
1443.01	528
1451.77	462
1460.52	410
1469.25	400
1477.98	406
1486.7	328
1495.4	334
1504.1	300
1512.78	308
1521.45	322
1530.11	328
1538.76	326
1547.41	318
1556.03	324
1564.65	342
1573.26	396
1581.86	492
1590.45	834
1599.02	1418
1607.59	1322
1616.14	790
1624.69	416
1633.22	346
1641.75	292
1650.26	280
1658.76	274
1667.26	266
1675.74	252
1684.21	242
1692.67	288
1701.12	268
1709.56	272
1717.99	282
1726.41	248
1734.82	264
1743.22	238
1751.61	262
1759.99	260
1768.36	220
1776.71	258
1785.06	238
1793.4	252
1801.73	248
1810.04	228
1818.35	224
1826.65	248
1834.94	244
1843.21	230
1851.48	244
1859.74	234
1867.98	246
1876.22	238
1884.45	242
1892.67	240
1900.87	242
1909.07	226
1917.26	240
1925.43	246
1933.6	232
1941.76	248
1949.91	250
1958.05	238
1966.17	254
1974.29	206
1982.4	244
1990.5	240
1998.59	216
2006.67	236
2014.74	222
2022.8	220
2030.85	228
2038.89	232
2046.92	224
2054.94	234
2062.95	228
2070.96	240
2078.95	232
2086.93	234
2094.91	230
2102.87	222
2110.83	238
2118.77	216
2126.71	226
2134.63	228
2142.55	244
2150.46	234
2158.35	218
2166.24	250
2174.12	232
2181.99	236
2189.85	230
2197.7	238
2205.55	222
2213.38	218
2221.2	224
2229.02	230
2236.82	220
2244.62	224
2252.4	232
2260.18	220
2267.95	240
2275.71	210
2283.46	214
2291.2	246
2298.93	236
2306.65	246
2314.37	228
2322.07	258
2329.77	234
2337.45	222
2345.13	244
2352.8	236
2360.46	212
2368.11	236
2375.75	226
2383.38	244
2391.01	226
2398.62	250
2406.23	238
2413.82	230
2421.41	216
2428.99	214
2436.56	204
2444.12	238
2449.79	228