File: Mixture_Classification/Jesse_Dataset_v2/Pure Raman/Polypropylene oxide/633nm/ps-ppo-7jan25-0,0000-map2_Y01_X04.txt
182.393	686
192.79	622
203.174	508
213.542	462
223.897	620
234.238	1270
244.566	872
254.878	488
265.178	300
275.463	298
285.734	402
295.992	632
306.236	480
316.467	390
326.684	372
336.887	408
347.075	366
357.251	358
367.413	350
377.562	318
387.697	250
397.819	234
407.926	272
418.02	334
428.101	232
438.169	194
448.223	158
458.264	174
468.291	246
478.306	414
488.307	488
498.294	242
508.269	260
518.23	306
528.177	434
538.113	802
548.034	432
557.942	508
567.838	2758
577.72	1574
587.589	614
597.446	462
607.289	246
617.119	236
626.936	266
636.741	320
646.533	242
656.313	204
666.078	178
675.831	174
685.571	174
695.299	178
705.014	180
714.716	252
724.406	204
734.082	216
743.746	288
753.398	286
763.037	196
772.664	214
782.278	208
791.879	206
801.467	182
811.044	206
820.608	240
830.16	814
839.699	402
849.226	282
858.741	244
868.243	202
877.731	176
887.209	190
896.674	174
906.128	176
915.569	190
924.997	178
934.414	190
943.818	264
953.211	558
962.59	926
971.958	450
981.314	274
990.659	252
999.99	210
1009.31	214
1018.62	224
1027.91	272
1037.2	282
1046.47	250
1055.73	208
1064.98	208
1074.22	202
1083.44	224
1092.65	228
1101.86	250
1111.05	840
1120.22	388
1129.39	262
1138.54	258
1147.69	234
1156.82	244
1165.94	268
1175.05	272
1184.14	578
1193.23	438
1202.3	456
1211.36	300
1220.41	262
1229.45	360
1238.48	242
1247.5	222
1256.5	230
1265.49	250
1274.48	290
1283.45	346
1292.41	530
1301.36	1614
1310.29	1364
1319.22	564
1328.13	452
1337.04	350
1345.93	376
1354.81	364
1363.68	308
1372.54	520
1381.38	1020
1390.22	406
1399.05	278
1407.86	258
1416.66	324
1425.46	428
1434.24	458
1443.01	516
1451.77	398
1460.52	396
1469.25	402
1477.98	360
1486.7	308
1495.4	292
1504.1	280
1512.78	268
1521.45	268
1530.11	272
1538.76	298
1547.41	286
1556.03	292
1564.65	316
1573.26	350
1581.86	476
1590.45	790
1599.02	1388
1607.59	1320
1616.14	752
1624.69	410
1633.22	314
1641.75	264
1650.26	258
1658.76	250
1667.26	214
1675.74	254
1684.21	244
1692.67	238
1701.12	238
1709.56	260
1717.99	238
1726.41	234
1734.82	220
1743.22	230
1751.61	214
1759.99	222
1768.36	222
1776.71	208
1785.06	212
1793.4	206
1801.73	228
1810.04	214
1818.35	210
1826.65	218
1834.94	220
1843.21	210
1851.48	224
1859.74	222
1867.98	220
1876.22	220
1884.45	200
1892.67	212
1900.87	228
1909.07	224
1917.26	230
1925.43	214
1933.6	228
1941.76	220
1949.91	216
1958.05	212
1966.17	214
1974.29	228
1982.4	216
1990.5	214
1998.59	210
2006.67	218
2014.74	238
2022.8	228
2030.85	206
2038.89	222
2046.92	212
2054.94	216
2062.95	232
2070.96	226
2078.95	236
2086.93	206
2094.91	224
2102.87	204
2110.83	224
2118.77	212
2126.71	212
2134.63	224
2142.55	216
2150.46	208
2158.35	220
2166.24	196
2174.12	212
2181.99	206
2189.85	214
2197.7	216
2205.55	212
2213.38	212
2221.2	196
2229.02	216
2236.82	232
2244.62	204
2252.4	218
2260.18	214
2267.95	200
2275.71	224
2283.46	218
2291.2	222
2298.93	232
2306.65	238
2314.37	228
2322.07	218
2329.77	238
2337.45	228
2345.13	216
2352.8	220
2360.46	208
2368.11	210
2375.75	238
2383.38	220
2391.01	224
2398.62	234
2406.23	230
2413.82	236
2421.41	208
2428.99	214
2436.56	224
2444.12	206
2449.79	224