File: Mixture_Classification/Jesse_Dataset_v2/Pure Raman/Polypropylene oxide/633nm/ps-ppo-7jan25-0,0000-map2_Y10_X09.txt
182.393	666
192.79	572
203.174	486
213.542	426
223.897	546
234.238	1180
244.566	868
254.878	460
265.178	328
275.463	280
285.734	356
295.992	574
306.236	448
316.467	376
326.684	370
336.887	400
347.075	332
357.251	356
367.413	332
377.562	322
387.697	234
397.819	234
407.926	270
418.02	324
428.101	224
438.169	194
448.223	178
458.264	168
468.291	224
478.306	362
488.307	430
498.294	254
508.269	254
518.23	328
528.177	382
538.113	760
548.034	448
557.942	508
567.838	2466
577.72	1512
587.589	588
597.446	434
607.289	220
617.119	216
626.936	268
636.741	314
646.533	260
656.313	208
666.078	176
675.831	164
685.571	178
695.299	182
705.014	176
714.716	240
724.406	224
734.082	198
743.746	278
753.398	302
763.037	200
772.664	208
782.278	222
791.879	188
801.467	200
811.044	216
820.608	236
830.16	760
839.699	390
849.226	254
858.741	240
868.243	218
877.731	198
887.209	186
896.674	192
906.128	198
915.569	172
924.997	188
934.414	206
943.818	252
953.211	520
962.59	846
971.958	444
981.314	264
990.659	216
999.99	200
1009.31	188
1018.62	234
1027.91	268
1037.2	278
1046.47	238
1055.73	224
1064.98	204
1074.22	200
1083.44	204
1092.65	202
1101.86	238
1111.05	758
1120.22	392
1129.39	256
1138.54	236
1147.69	228
1156.82	244
1165.94	270
1175.05	270
1184.14	518
1193.23	452
1202.3	468
1211.36	300
1220.41	242
1229.45	340
1238.48	246
1247.5	230
1256.5	238
1265.49	250
1274.48	280
1283.45	356
1292.41	484
1301.36	1482
1310.29	1300
1319.22	542
1328.13	448
1337.04	318
1345.93	342
1354.81	374
1363.68	308
1372.54	510
1381.38	998
1390.22	408
1399.05	274
1407.86	278
1416.66	308
1425.46	392
1434.24	444
1443.01	496
1451.77	416
1460.52	390
1469.25	352
1477.98	368
1486.7	326
1495.4	284
1504.1	270
1512.78	276
1521.45	260
1530.11	272
1538.76	258
1547.41	272
1556.03	312
1564.65	318
1573.26	360
1581.86	462
1590.45	752
1599.02	1302
1607.59	1252
1616.14	756
1624.69	402
1633.22	286
1641.75	254
1650.26	250
1658.76	244
1667.26	242
1675.74	230
1684.21	240
1692.67	262
1701.12	240
1709.56	238
1717.99	246
1726.41	232
1734.82	224
1743.22	216
1751.61	224
1759.99	232
1768.36	224
1776.71	230
1785.06	214
1793.4	234
1801.73	222
1810.04	220
1818.35	212
1826.65	204
1834.94	218
1843.21	198
1851.48	216
1859.74	224
1867.98	192
1876.22	216
1884.45	220
1892.67	240
1900.87	220
1909.07	226
1917.26	206
1925.43	220
1933.6	220
1941.76	204
1949.91	204
1958.05	204
1966.17	212
1974.29	220
1982.4	212
1990.5	218
1998.59	222
2006.67	212
2014.74	212
2022.8	214
2030.85	222
2038.89	206
2046.92	216
2054.94	204
2062.95	222
2070.96	204
2078.95	210
2086.93	216
2094.91	204
2102.87	218
2110.83	200
2118.77	210
2126.71	220
2134.63	228
2142.55	210
2150.46	226
2158.35	220
2166.24	220
2174.12	204
2181.99	196
2189.85	218
2197.7	198
2205.55	218
2213.38	196
2221.2	202
2229.02	200
2236.82	210
2244.62	206
2252.4	220
2260.18	196
2267.95	214
2275.71	212
2283.46	200
2291.2	222
2298.93	222
2306.65	228
2314.37	216
2322.07	214
2329.77	222
2337.45	222
2345.13	206
2352.8	232
2360.46	212
2368.11	194
2375.75	208
2383.38	204
2391.01	224
2398.62	210
2406.23	222
2413.82	208
2421.41	200
2428.99	216
2436.56	218
2444.12	214
2449.79	204