File: Mixture_Classification/Jesse_Dataset_v2/Pure Raman/Polypropylene oxide/633nm/ps-ppo-7jan25-0,0000-map2_Y09_X02.txt
182.393	652
192.79	588
203.174	492
213.542	436
223.897	576
234.238	1220
244.566	864
254.878	464
265.178	328
275.463	256
285.734	372
295.992	624
306.236	450
316.467	356
326.684	348
336.887	412
347.075	354
357.251	352
367.413	312
377.562	286
387.697	244
397.819	224
407.926	252
418.02	330
428.101	240
438.169	180
448.223	174
458.264	176
468.291	256
478.306	380
488.307	434
498.294	238
508.269	250
518.23	320
528.177	388
538.113	750
548.034	462
557.942	524
567.838	2602
577.72	1552
587.589	596
597.446	430
607.289	210
617.119	206
626.936	262
636.741	322
646.533	252
656.313	210
666.078	186
675.831	170
685.571	164
695.299	170
705.014	168
714.716	260
724.406	224
734.082	190
743.746	268
753.398	264
763.037	186
772.664	200
782.278	208
791.879	184
801.467	184
811.044	196
820.608	222
830.16	746
839.699	390
849.226	252
858.741	220
868.243	182
877.731	186
887.209	176
896.674	176
906.128	172
915.569	166
924.997	172
934.414	190
943.818	240
953.211	524
962.59	870
971.958	434
981.314	234
990.659	198
999.99	200
1009.31	184
1018.62	214
1027.91	260
1037.2	282
1046.47	220
1055.73	186
1064.98	184
1074.22	190
1083.44	194
1092.65	196
1101.86	252
1111.05	802
1120.22	384
1129.39	254
1138.54	248
1147.69	216
1156.82	250
1165.94	264
1175.05	254
1184.14	542
1193.23	450
1202.3	482
1211.36	282
1220.41	252
1229.45	328
1238.48	248
1247.5	222
1256.5	232
1265.49	236
1274.48	252
1283.45	330
1292.41	472
1301.36	1550
1310.29	1324
1319.22	550
1328.13	460
1337.04	346
1345.93	358
1354.81	376
1363.68	300
1372.54	530
1381.38	1020
1390.22	372
1399.05	252
1407.86	274
1416.66	324
1425.46	388
1434.24	460
1443.01	458
1451.77	400
1460.52	384
1469.25	360
1477.98	354
1486.7	306
1495.4	262
1504.1	296
1512.78	278
1521.45	262
1530.11	266
1538.76	260
1547.41	276
1556.03	290
1564.65	300
1573.26	324
1581.86	416
1590.45	728
1599.02	1380
1607.59	1292
1616.14	704
1624.69	392
1633.22	300
1641.75	264
1650.26	244
1658.76	240
1667.26	236
1675.74	218
1684.21	220
1692.67	238
1701.12	248
1709.56	232
1717.99	206
1726.41	210
1734.82	204
1743.22	200
1751.61	222
1759.99	206
1768.36	198
1776.71	188
1785.06	214
1793.4	210
1801.73	208
1810.04	216
1818.35	208
1826.65	210
1834.94	206
1843.21	184
1851.48	214
1859.74	194
1867.98	186
1876.22	198
1884.45	200
1892.67	210
1900.87	206
1909.07	192
1917.26	204
1925.43	206
1933.6	208
1941.76	200
1949.91	200
1958.05	184
1966.17	214
1974.29	182
1982.4	202
1990.5	202
1998.59	216
2006.67	198
2014.74	204
2022.8	214
2030.85	192
2038.89	190
2046.92	206
2054.94	206
2062.95	220
2070.96	206
2078.95	204
2086.93	220
2094.91	200
2102.87	214
2110.83	198
2118.77	210
2126.71	196
2134.63	206
2142.55	206
2150.46	200
2158.35	192
2166.24	214
2174.12	200
2181.99	212
2189.85	198
2197.7	204
2205.55	216
2213.38	200
2221.2	190
2229.02	208
2236.82	200
2244.62	194
2252.4	214
2260.18	202
2267.95	206
2275.71	210
2283.46	208
2291.2	196
2298.93	204
2306.65	216
2314.37	218
2322.07	210
2329.77	210
2337.45	210
2345.13	214
2352.8	216
2360.46	224
2368.11	208
2375.75	214
2383.38	212
2391.01	222
2398.62	240
2406.23	228
2413.82	188
2421.41	196
2428.99	194
2436.56	192
2444.12	186
2449.79	198