File: Mixture_Classification/Jesse_Dataset_v2/Pure Raman/Polypropylene oxide/633nm/ps-ppo-7jan25-0,0000-map2_Y10_X04.txt
182.393	656
192.79	568
203.174	488
213.542	432
223.897	584
234.238	1228
244.566	840
254.878	478
265.178	304
275.463	262
285.734	386
295.992	612
306.236	460
316.467	348
326.684	356
336.887	406
347.075	338
357.251	338
367.413	304
377.562	306
387.697	240
397.819	214
407.926	262
418.02	330
428.101	244
438.169	194
448.223	166
458.264	174
468.291	226
478.306	378
488.307	438
498.294	224
508.269	246
518.23	312
528.177	378
538.113	748
548.034	448
557.942	472
567.838	2484
577.72	1554
587.589	570
597.446	442
607.289	228
617.119	202
626.936	266
636.741	308
646.533	248
656.313	212
666.078	152
675.831	170
685.571	182
695.299	142
705.014	170
714.716	234
724.406	202
734.082	206
743.746	272
753.398	308
763.037	202
772.664	202
782.278	218
791.879	192
801.467	200
811.044	204
820.608	236
830.16	752
839.699	390
849.226	248
858.741	244
868.243	192
877.731	200
887.209	196
896.674	166
906.128	182
915.569	172
924.997	174
934.414	180
943.818	254
953.211	534
962.59	890
971.958	460
981.314	254
990.659	222
999.99	184
1009.31	180
1018.62	200
1027.91	234
1037.2	282
1046.47	224
1055.73	192
1064.98	186
1074.22	200
1083.44	206
1092.65	208
1101.86	258
1111.05	784
1120.22	384
1129.39	238
1138.54	244
1147.69	220
1156.82	248
1165.94	274
1175.05	252
1184.14	528
1193.23	432
1202.3	448
1211.36	272
1220.41	220
1229.45	346
1238.48	234
1247.5	228
1256.5	218
1265.49	244
1274.48	248
1283.45	342
1292.41	488
1301.36	1514
1310.29	1304
1319.22	546
1328.13	464
1337.04	352
1345.93	362
1354.81	342
1363.68	324
1372.54	490
1381.38	990
1390.22	408
1399.05	256
1407.86	272
1416.66	296
1425.46	394
1434.24	460
1443.01	474
1451.77	402
1460.52	356
1469.25	364
1477.98	346
1486.7	308
1495.4	286
1504.1	266
1512.78	272
1521.45	260
1530.11	266
1538.76	256
1547.41	270
1556.03	290
1564.65	302
1573.26	340
1581.86	418
1590.45	750
1599.02	1356
1607.59	1260
1616.14	738
1624.69	382
1633.22	278
1641.75	258
1650.26	252
1658.76	248
1667.26	220
1675.74	234
1684.21	218
1692.67	248
1701.12	240
1709.56	226
1717.99	226
1726.41	208
1734.82	220
1743.22	222
1751.61	216
1759.99	206
1768.36	214
1776.71	218
1785.06	194
1793.4	224
1801.73	204
1810.04	200
1818.35	204
1826.65	204
1834.94	212
1843.21	220
1851.48	232
1859.74	228
1867.98	202
1876.22	214
1884.45	212
1892.67	216
1900.87	206
1909.07	198
1917.26	204
1925.43	216
1933.6	208
1941.76	210
1949.91	210
1958.05	200
1966.17	204
1974.29	202
1982.4	192
1990.5	192
1998.59	212
2006.67	206
2014.74	202
2022.8	214
2030.85	206
2038.89	204
2046.92	196
2054.94	212
2062.95	208
2070.96	198
2078.95	212
2086.93	194
2094.91	198
2102.87	204
2110.83	198
2118.77	194
2126.71	196
2134.63	206
2142.55	198
2150.46	214
2158.35	214
2166.24	216
2174.12	218
2181.99	212
2189.85	198
2197.7	222
2205.55	198
2213.38	214
2221.2	206
2229.02	202
2236.82	222
2244.62	200
2252.4	208
2260.18	220
2267.95	210
2275.71	208
2283.46	196
2291.2	204
2298.93	214
2306.65	192
2314.37	214
2322.07	212
2329.77	234
2337.45	214
2345.13	204
2352.8	190
2360.46	198
2368.11	210
2375.75	208
2383.38	218
2391.01	216
2398.62	210
2406.23	218
2413.82	210
2421.41	202
2428.99	204
2436.56	200
2444.12	192
2449.79	220