File: Mixture_Classification/Jesse_Dataset_v2/Pure Raman/Polypropylene oxide/633nm/ps-ppo-7jan25-0,0000-map2_Y01_X08.txt
182.393	702
192.79	590
203.174	516
213.542	460
223.897	634
234.238	1264
244.566	920
254.878	508
265.178	308
275.463	264
285.734	402
295.992	680
306.236	508
316.467	396
326.684	374
336.887	426
347.075	350
357.251	378
367.413	340
377.562	292
387.697	266
397.819	234
407.926	304
418.02	354
428.101	228
438.169	198
448.223	194
458.264	192
468.291	256
478.306	398
488.307	474
498.294	242
508.269	266
518.23	306
528.177	394
538.113	778
548.034	448
557.942	512
567.838	2688
577.72	1566
587.589	604
597.446	482
607.289	256
617.119	228
626.936	268
636.741	322
646.533	248
656.313	210
666.078	182
675.831	182
685.571	184
695.299	176
705.014	192
714.716	244
724.406	222
734.082	208
743.746	280
753.398	298
763.037	208
772.664	208
782.278	234
791.879	200
801.467	204
811.044	226
820.608	254
830.16	832
839.699	406
849.226	268
858.741	228
868.243	196
877.731	198
887.209	196
896.674	194
906.128	188
915.569	188
924.997	200
934.414	220
943.818	270
953.211	590
962.59	932
971.958	462
981.314	260
990.659	256
999.99	190
1009.31	202
1018.62	250
1027.91	274
1037.2	280
1046.47	226
1055.73	206
1064.98	214
1074.22	208
1083.44	212
1092.65	214
1101.86	266
1111.05	878
1120.22	370
1129.39	246
1138.54	260
1147.69	230
1156.82	270
1165.94	278
1175.05	268
1184.14	580
1193.23	464
1202.3	496
1211.36	302
1220.41	250
1229.45	342
1238.48	256
1247.5	238
1256.5	240
1265.49	268
1274.48	278
1283.45	364
1292.41	508
1301.36	1634
1310.29	1352
1319.22	580
1328.13	470
1337.04	374
1345.93	380
1354.81	360
1363.68	312
1372.54	556
1381.38	1030
1390.22	416
1399.05	288
1407.86	290
1416.66	314
1425.46	418
1434.24	472
1443.01	516
1451.77	418
1460.52	392
1469.25	378
1477.98	378
1486.7	328
1495.4	302
1504.1	282
1512.78	274
1521.45	286
1530.11	300
1538.76	276
1547.41	294
1556.03	294
1564.65	286
1573.26	358
1581.86	462
1590.45	814
1599.02	1366
1607.59	1308
1616.14	762
1624.69	412
1633.22	324
1641.75	276
1650.26	270
1658.76	248
1667.26	248
1675.74	228
1684.21	258
1692.67	260
1701.12	244
1709.56	254
1717.99	234
1726.41	218
1734.82	218
1743.22	230
1751.61	222
1759.99	214
1768.36	240
1776.71	214
1785.06	200
1793.4	216
1801.73	236
1810.04	218
1818.35	218
1826.65	214
1834.94	210
1843.21	234
1851.48	214
1859.74	214
1867.98	218
1876.22	220
1884.45	218
1892.67	228
1900.87	232
1909.07	238
1917.26	232
1925.43	210
1933.6	228
1941.76	220
1949.91	222
1958.05	202
1966.17	218
1974.29	222
1982.4	222
1990.5	220
1998.59	210
2006.67	228
2014.74	220
2022.8	216
2030.85	206
2038.89	240
2046.92	232
2054.94	222
2062.95	222
2070.96	216
2078.95	220
2086.93	230
2094.91	220
2102.87	208
2110.83	212
2118.77	216
2126.71	224
2134.63	218
2142.55	212
2150.46	212
2158.35	224
2166.24	206
2174.12	228
2181.99	210
2189.85	230
2197.7	200
2205.55	208
2213.38	208
2221.2	224
2229.02	226
2236.82	218
2244.62	236
2252.4	232
2260.18	210
2267.95	224
2275.71	204
2283.46	224
2291.2	226
2298.93	194
2306.65	220
2314.37	224
2322.07	218
2329.77	204
2337.45	218
2345.13	222
2352.8	228
2360.46	212
2368.11	218
2375.75	230
2383.38	250
2391.01	236
2398.62	234
2406.23	216
2413.82	226
2421.41	220
2428.99	228
2436.56	222
2444.12	244
2449.79	212