File: Mixture_Classification/Jesse_Dataset_v2/Pure Raman/Polypropylene oxide/633nm/ps-ppo-7jan25-0,0000-map2_Y09_X06.txt
182.393	652
192.79	604
203.174	496
213.542	426
223.897	570
234.238	1212
244.566	858
254.878	456
265.178	308
275.463	272
285.734	354
295.992	600
306.236	452
316.467	344
326.684	368
336.887	400
347.075	338
357.251	330
367.413	296
377.562	306
387.697	224
397.819	212
407.926	276
418.02	316
428.101	208
438.169	198
448.223	162
458.264	188
468.291	230
478.306	380
488.307	434
498.294	230
508.269	250
518.23	314
528.177	378
538.113	734
548.034	428
557.942	474
567.838	2504
577.72	1538
587.589	548
597.446	416
607.289	254
617.119	206
626.936	280
636.741	302
646.533	230
656.313	198
666.078	170
675.831	160
685.571	162
695.299	166
705.014	172
714.716	240
724.406	214
734.082	212
743.746	264
753.398	272
763.037	198
772.664	184
782.278	212
791.879	176
801.467	188
811.044	200
820.608	224
830.16	768
839.699	392
849.226	252
858.741	240
868.243	208
877.731	192
887.209	190
896.674	176
906.128	174
915.569	192
924.997	194
934.414	192
943.818	258
953.211	500
962.59	866
971.958	446
981.314	226
990.659	250
999.99	200
1009.31	188
1018.62	216
1027.91	258
1037.2	292
1046.47	216
1055.73	188
1064.98	198
1074.22	188
1083.44	200
1092.65	208
1101.86	256
1111.05	790
1120.22	380
1129.39	282
1138.54	250
1147.69	214
1156.82	230
1165.94	278
1175.05	272
1184.14	524
1193.23	424
1202.3	464
1211.36	300
1220.41	228
1229.45	324
1238.48	248
1247.5	222
1256.5	244
1265.49	252
1274.48	250
1283.45	360
1292.41	498
1301.36	1532
1310.29	1266
1319.22	574
1328.13	414
1337.04	326
1345.93	350
1354.81	344
1363.68	300
1372.54	514
1381.38	1030
1390.22	392
1399.05	254
1407.86	266
1416.66	308
1425.46	392
1434.24	434
1443.01	516
1451.77	406
1460.52	354
1469.25	356
1477.98	350
1486.7	314
1495.4	282
1504.1	270
1512.78	256
1521.45	258
1530.11	270
1538.76	266
1547.41	278
1556.03	292
1564.65	292
1573.26	326
1581.86	464
1590.45	760
1599.02	1326
1607.59	1228
1616.14	714
1624.69	396
1633.22	294
1641.75	248
1650.26	230
1658.76	242
1667.26	230
1675.74	220
1684.21	230
1692.67	246
1701.12	240
1709.56	238
1717.99	236
1726.41	206
1734.82	214
1743.22	206
1751.61	204
1759.99	222
1768.36	210
1776.71	208
1785.06	198
1793.4	212
1801.73	214
1810.04	218
1818.35	208
1826.65	226
1834.94	198
1843.21	206
1851.48	210
1859.74	212
1867.98	200
1876.22	208
1884.45	220
1892.67	224
1900.87	228
1909.07	216
1917.26	210
1925.43	200
1933.6	230
1941.76	226
1949.91	222
1958.05	214
1966.17	214
1974.29	192
1982.4	206
1990.5	210
1998.59	206
2006.67	220
2014.74	196
2022.8	218
2030.85	220
2038.89	202
2046.92	206
2054.94	214
2062.95	210
2070.96	224
2078.95	216
2086.93	218
2094.91	218
2102.87	196
2110.83	220
2118.77	210
2126.71	212
2134.63	212
2142.55	212
2150.46	222
2158.35	200
2166.24	210
2174.12	218
2181.99	226
2189.85	198
2197.7	204
2205.55	210
2213.38	204
2221.2	206
2229.02	206
2236.82	210
2244.62	198
2252.4	204
2260.18	208
2267.95	210
2275.71	208
2283.46	214
2291.2	200
2298.93	212
2306.65	212
2314.37	218
2322.07	224
2329.77	232
2337.45	210
2345.13	196
2352.8	216
2360.46	216
2368.11	216
2375.75	226
2383.38	214
2391.01	222
2398.62	248
2406.23	216
2413.82	220
2421.41	222
2428.99	218
2436.56	212
2444.12	208
2449.79	228