File: Mixture_Classification/Jesse_Dataset_v2/Pure Raman/Polypropylene oxide/633nm/ps-ppo-7jan25-0,0000-map2_Y05_X07.txt
182.393	664
192.79	536
203.174	478
213.542	416
223.897	564
234.238	1218
244.566	858
254.878	460
265.178	268
275.463	246
285.734	340
295.992	608
306.236	416
316.467	342
326.684	346
336.887	376
347.075	320
357.251	334
367.413	306
377.562	268
387.697	232
397.819	216
407.926	260
418.02	294
428.101	194
438.169	164
448.223	130
458.264	138
468.291	204
478.306	360
488.307	408
498.294	212
508.269	228
518.23	284
528.177	340
538.113	720
548.034	408
557.942	494
567.838	2626
577.72	1514
587.589	580
597.446	420
607.289	208
617.119	188
626.936	266
636.741	290
646.533	204
656.313	182
666.078	146
675.831	132
685.571	142
695.299	132
705.014	144
714.716	206
724.406	156
734.082	172
743.746	230
753.398	238
763.037	172
772.664	150
782.278	178
791.879	160
801.467	172
811.044	166
820.608	192
830.16	756
839.699	372
849.226	224
858.741	206
868.243	162
877.731	156
887.209	158
896.674	134
906.128	136
915.569	134
924.997	152
934.414	164
943.818	212
953.211	480
962.59	856
971.958	404
981.314	204
990.659	182
999.99	150
1009.31	158
1018.62	180
1027.91	208
1037.2	232
1046.47	200
1055.73	162
1064.98	150
1074.22	154
1083.44	182
1092.65	180
1101.86	198
1111.05	762
1120.22	332
1129.39	210
1138.54	214
1147.69	186
1156.82	206
1165.94	228
1175.05	244
1184.14	510
1193.23	420
1202.3	432
1211.36	272
1220.41	210
1229.45	306
1238.48	214
1247.5	194
1256.5	196
1265.49	218
1274.48	244
1283.45	306
1292.41	478
1301.36	1510
1310.29	1234
1319.22	492
1328.13	410
1337.04	298
1345.93	316
1354.81	312
1363.68	272
1372.54	494
1381.38	1000
1390.22	376
1399.05	232
1407.86	242
1416.66	272
1425.46	366
1434.24	432
1443.01	464
1451.77	350
1460.52	326
1469.25	336
1477.98	310
1486.7	268
1495.4	248
1504.1	244
1512.78	234
1521.45	220
1530.11	222
1538.76	224
1547.41	242
1556.03	236
1564.65	270
1573.26	284
1581.86	404
1590.45	724
1599.02	1350
1607.59	1224
1616.14	686
1624.69	350
1633.22	258
1641.75	216
1650.26	194
1658.76	192
1667.26	198
1675.74	186
1684.21	194
1692.67	208
1701.12	198
1709.56	180
1717.99	182
1726.41	194
1734.82	188
1743.22	174
1751.61	180
1759.99	172
1768.36	156
1776.71	174
1785.06	186
1793.4	168
1801.73	176
1810.04	186
1818.35	146
1826.65	162
1834.94	160
1843.21	176
1851.48	178
1859.74	184
1867.98	182
1876.22	180
1884.45	170
1892.67	180
1900.87	182
1909.07	176
1917.26	178
1925.43	192
1933.6	178
1941.76	166
1949.91	168
1958.05	178
1966.17	180
1974.29	170
1982.4	174
1990.5	172
1998.59	170
2006.67	164
2014.74	184
2022.8	192
2030.85	166
2038.89	184
2046.92	190
2054.94	182
2062.95	172
2070.96	160
2078.95	186
2086.93	182
2094.91	174
2102.87	176
2110.83	170
2118.77	160
2126.71	174
2134.63	168
2142.55	176
2150.46	172
2158.35	188
2166.24	178
2174.12	186
2181.99	176
2189.85	182
2197.7	186
2205.55	176
2213.38	174
2221.2	192
2229.02	182
2236.82	176
2244.62	166
2252.4	186
2260.18	192
2267.95	176
2275.71	184
2283.46	180
2291.2	168
2298.93	190
2306.65	176
2314.37	172
2322.07	192
2329.77	188
2337.45	184
2345.13	186
2352.8	190
2360.46	174
2368.11	186
2375.75	198
2383.38	188
2391.01	198
2398.62	190
2406.23	202
2413.82	188
2421.41	182
2428.99	184
2436.56	172
2444.12	172
2449.79	194