File: Mixture_Classification/Jesse_Dataset_v2/Pure Raman/Polypropylene oxide/633nm/ps-ppo-7jan25-0,0000-map2_Y09_X10.txt
182.393	650
192.79	572
203.174	484
213.542	428
223.897	572
234.238	1130
244.566	824
254.878	426
265.178	322
275.463	286
285.734	348
295.992	578
306.236	430
316.467	350
326.684	354
336.887	404
347.075	334
357.251	338
367.413	332
377.562	316
387.697	254
397.819	246
407.926	280
418.02	344
428.101	238
438.169	180
448.223	202
458.264	198
468.291	244
478.306	392
488.307	422
498.294	248
508.269	250
518.23	302
528.177	398
538.113	714
548.034	438
557.942	472
567.838	2396
577.72	1480
587.589	580
597.446	432
607.289	244
617.119	228
626.936	278
636.741	312
646.533	244
656.313	220
666.078	180
675.831	186
685.571	192
695.299	190
705.014	204
714.716	270
724.406	230
734.082	208
743.746	286
753.398	312
763.037	222
772.664	238
782.278	240
791.879	210
801.467	230
811.044	212
820.608	264
830.16	724
839.699	412
849.226	274
858.741	252
868.243	228
877.731	204
887.209	206
896.674	216
906.128	190
915.569	194
924.997	214
934.414	214
943.818	270
953.211	526
962.59	858
971.958	446
981.314	258
990.659	246
999.99	232
1009.31	234
1018.62	248
1027.91	274
1037.2	270
1046.47	254
1055.73	202
1064.98	220
1074.22	212
1083.44	230
1092.65	232
1101.86	250
1111.05	748
1120.22	394
1129.39	264
1138.54	262
1147.69	236
1156.82	252
1165.94	272
1175.05	302
1184.14	560
1193.23	432
1202.3	466
1211.36	322
1220.41	268
1229.45	374
1238.48	278
1247.5	252
1256.5	248
1265.49	258
1274.48	268
1283.45	374
1292.41	478
1301.36	1432
1310.29	1250
1319.22	560
1328.13	460
1337.04	356
1345.93	394
1354.81	392
1363.68	310
1372.54	516
1381.38	990
1390.22	390
1399.05	268
1407.86	296
1416.66	324
1425.46	444
1434.24	464
1443.01	488
1451.77	416
1460.52	396
1469.25	384
1477.98	370
1486.7	304
1495.4	308
1504.1	308
1512.78	282
1521.45	290
1530.11	302
1538.76	282
1547.41	304
1556.03	282
1564.65	308
1573.26	352
1581.86	454
1590.45	754
1599.02	1344
1607.59	1232
1616.14	708
1624.69	412
1633.22	320
1641.75	270
1650.26	270
1658.76	264
1667.26	264
1675.74	238
1684.21	266
1692.67	264
1701.12	266
1709.56	254
1717.99	240
1726.41	234
1734.82	234
1743.22	224
1751.61	244
1759.99	232
1768.36	238
1776.71	220
1785.06	244
1793.4	238
1801.73	230
1810.04	242
1818.35	228
1826.65	222
1834.94	238
1843.21	218
1851.48	232
1859.74	232
1867.98	230
1876.22	242
1884.45	224
1892.67	214
1900.87	228
1909.07	246
1917.26	244
1925.43	240
1933.6	246
1941.76	222
1949.91	208
1958.05	236
1966.17	228
1974.29	232
1982.4	232
1990.5	220
1998.59	216
2006.67	236
2014.74	232
2022.8	242
2030.85	226
2038.89	236
2046.92	216
2054.94	242
2062.95	202
2070.96	240
2078.95	218
2086.93	228
2094.91	198
2102.87	254
2110.83	214
2118.77	228
2126.71	236
2134.63	224
2142.55	222
2150.46	218
2158.35	218
2166.24	216
2174.12	210
2181.99	216
2189.85	242
2197.7	222
2205.55	210
2213.38	240
2221.2	222
2229.02	228
2236.82	232
2244.62	222
2252.4	234
2260.18	216
2267.95	230
2275.71	222
2283.46	228
2291.2	228
2298.93	228
2306.65	228
2314.37	228
2322.07	230
2329.77	236
2337.45	220
2345.13	224
2352.8	232
2360.46	230
2368.11	226
2375.75	232
2383.38	228
2391.01	234
2398.62	218
2406.23	220
2413.82	246
2421.41	242
2428.99	220
2436.56	222
2444.12	226
2449.79	216