File: Mixture_Classification/Jesse_Dataset_v2/Pure Raman/Polypropylene oxide/633nm/ps-ppo-7jan25-0,0000-map2_Y08_X05.txt
182.393	692
192.79	604
203.174	492
213.542	442
223.897	594
234.238	1274
244.566	856
254.878	458
265.178	312
275.463	258
285.734	380
295.992	602
306.236	478
316.467	378
326.684	372
336.887	398
347.075	350
357.251	358
367.413	312
377.562	300
387.697	248
397.819	234
407.926	266
418.02	330
428.101	244
438.169	164
448.223	186
458.264	182
468.291	238
478.306	384
488.307	470
498.294	246
508.269	234
518.23	306
528.177	368
538.113	782
548.034	466
557.942	504
567.838	2530
577.72	1560
587.589	580
597.446	450
607.289	244
617.119	238
626.936	264
636.741	314
646.533	246
656.313	204
666.078	172
675.831	180
685.571	170
695.299	158
705.014	182
714.716	244
724.406	196
734.082	196
743.746	268
753.398	294
763.037	210
772.664	184
782.278	224
791.879	196
801.467	188
811.044	204
820.608	244
830.16	768
839.699	400
849.226	288
858.741	242
868.243	204
877.731	182
887.209	194
896.674	188
906.128	176
915.569	176
924.997	180
934.414	202
943.818	236
953.211	534
962.59	870
971.958	448
981.314	250
990.659	228
999.99	206
1009.31	206
1018.62	248
1027.91	270
1037.2	288
1046.47	220
1055.73	212
1064.98	200
1074.22	204
1083.44	210
1092.65	222
1101.86	242
1111.05	798
1120.22	400
1129.39	274
1138.54	246
1147.69	226
1156.82	258
1165.94	276
1175.05	266
1184.14	544
1193.23	440
1202.3	460
1211.36	306
1220.41	228
1229.45	348
1238.48	246
1247.5	220
1256.5	234
1265.49	232
1274.48	292
1283.45	352
1292.41	504
1301.36	1520
1310.29	1314
1319.22	548
1328.13	444
1337.04	350
1345.93	354
1354.81	358
1363.68	298
1372.54	542
1381.38	1040
1390.22	402
1399.05	304
1407.86	292
1416.66	314
1425.46	416
1434.24	438
1443.01	498
1451.77	408
1460.52	376
1469.25	370
1477.98	348
1486.7	310
1495.4	290
1504.1	288
1512.78	278
1521.45	258
1530.11	292
1538.76	272
1547.41	270
1556.03	304
1564.65	328
1573.26	350
1581.86	444
1590.45	776
1599.02	1406
1607.59	1286
1616.14	754
1624.69	376
1633.22	322
1641.75	250
1650.26	242
1658.76	238
1667.26	248
1675.74	234
1684.21	244
1692.67	246
1701.12	236
1709.56	270
1717.99	246
1726.41	214
1734.82	230
1743.22	214
1751.61	212
1759.99	208
1768.36	224
1776.71	208
1785.06	236
1793.4	214
1801.73	228
1810.04	222
1818.35	208
1826.65	240
1834.94	210
1843.21	208
1851.48	222
1859.74	204
1867.98	232
1876.22	212
1884.45	200
1892.67	214
1900.87	216
1909.07	232
1917.26	238
1925.43	190
1933.6	212
1941.76	216
1949.91	214
1958.05	220
1966.17	224
1974.29	210
1982.4	214
1990.5	212
1998.59	228
2006.67	222
2014.74	208
2022.8	218
2030.85	216
2038.89	220
2046.92	222
2054.94	236
2062.95	218
2070.96	214
2078.95	202
2086.93	234
2094.91	218
2102.87	230
2110.83	218
2118.77	218
2126.71	230
2134.63	208
2142.55	226
2150.46	206
2158.35	218
2166.24	208
2174.12	202
2181.99	208
2189.85	226
2197.7	222
2205.55	220
2213.38	216
2221.2	208
2229.02	220
2236.82	204
2244.62	226
2252.4	214
2260.18	216
2267.95	210
2275.71	212
2283.46	228
2291.2	208
2298.93	234
2306.65	224
2314.37	224
2322.07	224
2329.77	222
2337.45	232
2345.13	226
2352.8	218
2360.46	220
2368.11	220
2375.75	216
2383.38	242
2391.01	224
2398.62	236
2406.23	234
2413.82	216
2421.41	224
2428.99	212
2436.56	206
2444.12	214
2449.79	210