File: Mixture_Classification/Jesse_Dataset_v2/Pure Raman/Polypropylene oxide/633nm/ps-ppo-7jan25-0,0000-map2_Y09_X08.txt
182.393	682
192.79	584
203.174	490
213.542	458
223.897	596
234.238	1242
244.566	836
254.878	440
265.178	302
275.463	284
285.734	366
295.992	632
306.236	446
316.467	362
326.684	378
336.887	412
347.075	364
357.251	338
367.413	306
377.562	306
387.697	242
397.819	240
407.926	272
418.02	344
428.101	220
438.169	208
448.223	156
458.264	172
468.291	224
478.306	376
488.307	438
498.294	230
508.269	252
518.23	308
528.177	382
538.113	766
548.034	464
557.942	484
567.838	2548
577.72	1518
587.589	594
597.446	446
607.289	240
617.119	206
626.936	260
636.741	300
646.533	240
656.313	208
666.078	164
675.831	162
685.571	172
695.299	174
705.014	182
714.716	258
724.406	208
734.082	204
743.746	270
753.398	288
763.037	204
772.664	200
782.278	204
791.879	188
801.467	188
811.044	214
820.608	222
830.16	768
839.699	396
849.226	248
858.741	218
868.243	188
877.731	192
887.209	186
896.674	184
906.128	160
915.569	184
924.997	182
934.414	188
943.818	256
953.211	522
962.59	880
971.958	444
981.314	232
990.659	224
999.99	194
1009.31	214
1018.62	228
1027.91	262
1037.2	276
1046.47	234
1055.73	208
1064.98	178
1074.22	208
1083.44	218
1092.65	210
1101.86	240
1111.05	832
1120.22	370
1129.39	268
1138.54	246
1147.69	216
1156.82	248
1165.94	280
1175.05	260
1184.14	544
1193.23	440
1202.3	490
1211.36	304
1220.41	234
1229.45	360
1238.48	250
1247.5	234
1256.5	240
1265.49	246
1274.48	272
1283.45	332
1292.41	474
1301.36	1534
1310.29	1348
1319.22	538
1328.13	476
1337.04	350
1345.93	362
1354.81	364
1363.68	296
1372.54	552
1381.38	970
1390.22	398
1399.05	284
1407.86	284
1416.66	332
1425.46	428
1434.24	460
1443.01	488
1451.77	400
1460.52	384
1469.25	352
1477.98	340
1486.7	316
1495.4	282
1504.1	280
1512.78	270
1521.45	276
1530.11	268
1538.76	268
1547.41	278
1556.03	302
1564.65	312
1573.26	354
1581.86	452
1590.45	764
1599.02	1348
1607.59	1322
1616.14	726
1624.69	386
1633.22	306
1641.75	266
1650.26	250
1658.76	250
1667.26	230
1675.74	238
1684.21	236
1692.67	272
1701.12	236
1709.56	258
1717.99	238
1726.41	228
1734.82	202
1743.22	230
1751.61	212
1759.99	230
1768.36	216
1776.71	222
1785.06	212
1793.4	234
1801.73	226
1810.04	206
1818.35	220
1826.65	220
1834.94	198
1843.21	224
1851.48	208
1859.74	196
1867.98	218
1876.22	230
1884.45	212
1892.67	206
1900.87	226
1909.07	232
1917.26	228
1925.43	224
1933.6	214
1941.76	202
1949.91	218
1958.05	218
1966.17	212
1974.29	222
1982.4	208
1990.5	220
1998.59	220
2006.67	212
2014.74	186
2022.8	212
2030.85	212
2038.89	218
2046.92	212
2054.94	216
2062.95	216
2070.96	212
2078.95	208
2086.93	204
2094.91	236
2102.87	220
2110.83	232
2118.77	212
2126.71	212
2134.63	206
2142.55	224
2150.46	224
2158.35	216
2166.24	218
2174.12	224
2181.99	214
2189.85	228
2197.7	212
2205.55	208
2213.38	212
2221.2	238
2229.02	216
2236.82	214
2244.62	228
2252.4	222
2260.18	212
2267.95	208
2275.71	220
2283.46	222
2291.2	218
2298.93	202
2306.65	212
2314.37	224
2322.07	226
2329.77	234
2337.45	194
2345.13	212
2352.8	222
2360.46	192
2368.11	214
2375.75	194
2383.38	232
2391.01	230
2398.62	214
2406.23	226
2413.82	230
2421.41	218
2428.99	212
2436.56	204
2444.12	220
2449.79	212