File: Mixture_Classification/Jesse_Dataset_v2/Pure Raman/Polypropylene oxide/633nm/ps-ppo-7jan25-0,0000-map2_Y10_X08.txt
182.393	644
192.79	576
203.174	468
213.542	428
223.897	556
234.238	1200
244.566	832
254.878	452
265.178	288
275.463	278
285.734	380
295.992	590
306.236	438
316.467	348
326.684	362
336.887	384
347.075	326
357.251	338
367.413	346
377.562	282
387.697	248
397.819	230
407.926	264
418.02	338
428.101	214
438.169	184
448.223	180
458.264	176
468.291	248
478.306	380
488.307	462
498.294	232
508.269	254
518.23	314
528.177	386
538.113	782
548.034	438
557.942	492
567.838	2450
577.72	1522
587.589	614
597.446	446
607.289	242
617.119	216
626.936	264
636.741	298
646.533	246
656.313	212
666.078	176
675.831	160
685.571	188
695.299	148
705.014	168
714.716	256
724.406	190
734.082	206
743.746	254
753.398	296
763.037	216
772.664	186
782.278	222
791.879	182
801.467	198
811.044	200
820.608	244
830.16	774
839.699	374
849.226	256
858.741	216
868.243	188
877.731	176
887.209	184
896.674	188
906.128	174
915.569	180
924.997	184
934.414	202
943.818	244
953.211	494
962.59	878
971.958	458
981.314	234
990.659	222
999.99	206
1009.31	198
1018.62	232
1027.91	244
1037.2	258
1046.47	240
1055.73	214
1064.98	194
1074.22	208
1083.44	192
1092.65	194
1101.86	228
1111.05	778
1120.22	376
1129.39	252
1138.54	222
1147.69	220
1156.82	230
1165.94	264
1175.05	266
1184.14	540
1193.23	418
1202.3	448
1211.36	294
1220.41	240
1229.45	318
1238.48	240
1247.5	212
1256.5	226
1265.49	236
1274.48	252
1283.45	324
1292.41	476
1301.36	1486
1310.29	1300
1319.22	532
1328.13	442
1337.04	320
1345.93	328
1354.81	346
1363.68	302
1372.54	512
1381.38	986
1390.22	392
1399.05	270
1407.86	280
1416.66	334
1425.46	418
1434.24	460
1443.01	490
1451.77	366
1460.52	370
1469.25	332
1477.98	350
1486.7	304
1495.4	276
1504.1	274
1512.78	270
1521.45	264
1530.11	234
1538.76	274
1547.41	312
1556.03	292
1564.65	322
1573.26	350
1581.86	466
1590.45	738
1599.02	1292
1607.59	1234
1616.14	704
1624.69	368
1633.22	298
1641.75	270
1650.26	252
1658.76	242
1667.26	262
1675.74	236
1684.21	234
1692.67	250
1701.12	260
1709.56	238
1717.99	240
1726.41	212
1734.82	222
1743.22	230
1751.61	210
1759.99	230
1768.36	206
1776.71	208
1785.06	232
1793.4	202
1801.73	230
1810.04	216
1818.35	210
1826.65	216
1834.94	204
1843.21	204
1851.48	208
1859.74	216
1867.98	222
1876.22	218
1884.45	218
1892.67	222
1900.87	208
1909.07	206
1917.26	216
1925.43	214
1933.6	208
1941.76	212
1949.91	202
1958.05	204
1966.17	214
1974.29	210
1982.4	206
1990.5	222
1998.59	226
2006.67	204
2014.74	216
2022.8	214
2030.85	188
2038.89	216
2046.92	212
2054.94	210
2062.95	202
2070.96	224
2078.95	212
2086.93	206
2094.91	220
2102.87	204
2110.83	222
2118.77	202
2126.71	202
2134.63	204
2142.55	212
2150.46	210
2158.35	216
2166.24	210
2174.12	212
2181.99	220
2189.85	216
2197.7	200
2205.55	208
2213.38	196
2221.2	226
2229.02	222
2236.82	202
2244.62	198
2252.4	204
2260.18	214
2267.95	202
2275.71	208
2283.46	216
2291.2	208
2298.93	192
2306.65	220
2314.37	222
2322.07	218
2329.77	236
2337.45	240
2345.13	210
2352.8	212
2360.46	196
2368.11	214
2375.75	212
2383.38	232
2391.01	212
2398.62	218
2406.23	214
2413.82	204
2421.41	216
2428.99	204
2436.56	216
2444.12	210
2449.79	212