File: Mixture_Classification/Jesse_Dataset_v2/Pure Raman/Polypropylene oxide/633nm/ps-ppo-7jan25-0,0000-map2_Y01_X06.txt
182.393	698
192.79	638
203.174	530
213.542	492
223.897	618
234.238	1254
244.566	876
254.878	476
265.178	328
275.463	284
285.734	400
295.992	640
306.236	482
316.467	364
326.684	378
336.887	406
347.075	380
357.251	380
367.413	336
377.562	334
387.697	274
397.819	246
407.926	296
418.02	370
428.101	246
438.169	196
448.223	182
458.264	188
468.291	242
478.306	406
488.307	456
498.294	240
508.269	284
518.23	320
528.177	384
538.113	744
548.034	466
557.942	530
567.838	2758
577.72	1600
587.589	612
597.446	476
607.289	248
617.119	226
626.936	290
636.741	352
646.533	244
656.313	214
666.078	174
675.831	174
685.571	186
695.299	178
705.014	192
714.716	250
724.406	208
734.082	230
743.746	286
753.398	298
763.037	194
772.664	198
782.278	220
791.879	194
801.467	192
811.044	226
820.608	238
830.16	852
839.699	406
849.226	274
858.741	246
868.243	216
877.731	190
887.209	190
896.674	190
906.128	184
915.569	186
924.997	200
934.414	208
943.818	270
953.211	538
962.59	886
971.958	436
981.314	256
990.659	236
999.99	206
1009.31	220
1018.62	244
1027.91	270
1037.2	284
1046.47	254
1055.73	210
1064.98	198
1074.22	182
1083.44	210
1092.65	210
1101.86	260
1111.05	850
1120.22	392
1129.39	258
1138.54	266
1147.69	238
1156.82	250
1165.94	280
1175.05	280
1184.14	558
1193.23	446
1202.3	500
1211.36	334
1220.41	266
1229.45	344
1238.48	264
1247.5	244
1256.5	246
1265.49	250
1274.48	292
1283.45	360
1292.41	512
1301.36	1630
1310.29	1336
1319.22	576
1328.13	456
1337.04	370
1345.93	396
1354.81	368
1363.68	336
1372.54	540
1381.38	1044
1390.22	406
1399.05	286
1407.86	284
1416.66	336
1425.46	418
1434.24	454
1443.01	490
1451.77	406
1460.52	392
1469.25	356
1477.98	380
1486.7	324
1495.4	286
1504.1	266
1512.78	272
1521.45	276
1530.11	252
1538.76	280
1547.41	284
1556.03	288
1564.65	316
1573.26	364
1581.86	468
1590.45	768
1599.02	1376
1607.59	1282
1616.14	722
1624.69	402
1633.22	310
1641.75	274
1650.26	260
1658.76	242
1667.26	232
1675.74	242
1684.21	230
1692.67	256
1701.12	256
1709.56	260
1717.99	240
1726.41	232
1734.82	216
1743.22	230
1751.61	212
1759.99	226
1768.36	214
1776.71	220
1785.06	228
1793.4	218
1801.73	220
1810.04	234
1818.35	226
1826.65	194
1834.94	218
1843.21	228
1851.48	240
1859.74	222
1867.98	212
1876.22	198
1884.45	226
1892.67	224
1900.87	212
1909.07	212
1917.26	210
1925.43	226
1933.6	210
1941.76	202
1949.91	230
1958.05	232
1966.17	216
1974.29	208
1982.4	222
1990.5	216
1998.59	204
2006.67	230
2014.74	222
2022.8	214
2030.85	212
2038.89	218
2046.92	224
2054.94	218
2062.95	230
2070.96	218
2078.95	216
2086.93	222
2094.91	234
2102.87	226
2110.83	220
2118.77	210
2126.71	224
2134.63	232
2142.55	212
2150.46	230
2158.35	218
2166.24	224
2174.12	198
2181.99	222
2189.85	218
2197.7	208
2205.55	208
2213.38	202
2221.2	220
2229.02	220
2236.82	212
2244.62	208
2252.4	216
2260.18	220
2267.95	222
2275.71	210
2283.46	218
2291.2	226
2298.93	200
2306.65	214
2314.37	222
2322.07	238
2329.77	242
2337.45	240
2345.13	228
2352.8	218
2360.46	216
2368.11	216
2375.75	218
2383.38	232
2391.01	216
2398.62	222
2406.23	236
2413.82	210
2421.41	214
2428.99	198
2436.56	226
2444.12	210
2449.79	244