File: Mixture_Classification/Jesse_Dataset_v2/Pure Raman/Polypropylene oxide/633nm/ps-ppo-7jan25-0,0000-map2_Y05_X00.txt
182.393	726
192.79	620
203.174	548
213.542	502
223.897	630
234.238	1320
244.566	910
254.878	508
265.178	330
275.463	314
285.734	412
295.992	662
306.236	512
316.467	396
326.684	404
336.887	404
347.075	370
357.251	396
367.413	354
377.562	324
387.697	284
397.819	262
407.926	288
418.02	370
428.101	276
438.169	220
448.223	206
458.264	204
468.291	276
478.306	414
488.307	468
498.294	284
508.269	290
518.23	354
528.177	424
538.113	826
548.034	480
557.942	550
567.838	2766
577.72	1552
587.589	632
597.446	470
607.289	254
617.119	244
626.936	296
636.741	386
646.533	294
656.313	228
666.078	202
675.831	206
685.571	194
695.299	194
705.014	214
714.716	284
724.406	236
734.082	254
743.746	312
753.398	308
763.037	204
772.664	230
782.278	230
791.879	230
801.467	224
811.044	238
820.608	260
830.16	842
839.699	412
849.226	294
858.741	276
868.243	250
877.731	220
887.209	208
896.674	204
906.128	220
915.569	190
924.997	218
934.414	228
943.818	300
953.211	564
962.59	916
971.958	502
981.314	256
990.659	264
999.99	214
1009.31	228
1018.62	244
1027.91	278
1037.2	306
1046.47	276
1055.73	240
1064.98	244
1074.22	228
1083.44	214
1092.65	246
1101.86	288
1111.05	868
1120.22	402
1129.39	290
1138.54	276
1147.69	274
1156.82	260
1165.94	306
1175.05	310
1184.14	606
1193.23	502
1202.3	508
1211.36	358
1220.41	270
1229.45	388
1238.48	290
1247.5	258
1256.5	258
1265.49	284
1274.48	314
1283.45	398
1292.41	544
1301.36	1630
1310.29	1392
1319.22	576
1328.13	498
1337.04	372
1345.93	410
1354.81	404
1363.68	388
1372.54	556
1381.38	1076
1390.22	428
1399.05	294
1407.86	298
1416.66	370
1425.46	438
1434.24	494
1443.01	546
1451.77	452
1460.52	410
1469.25	420
1477.98	384
1486.7	340
1495.4	310
1504.1	324
1512.78	300
1521.45	318
1530.11	302
1538.76	296
1547.41	324
1556.03	328
1564.65	342
1573.26	376
1581.86	506
1590.45	808
1599.02	1400
1607.59	1302
1616.14	778
1624.69	438
1633.22	340
1641.75	282
1650.26	298
1658.76	258
1667.26	254
1675.74	272
1684.21	242
1692.67	290
1701.12	260
1709.56	264
1717.99	256
1726.41	264
1734.82	268
1743.22	250
1751.61	254
1759.99	238
1768.36	216
1776.71	242
1785.06	252
1793.4	226
1801.73	234
1810.04	238
1818.35	228
1826.65	248
1834.94	232
1843.21	236
1851.48	222
1859.74	248
1867.98	242
1876.22	240
1884.45	252
1892.67	240
1900.87	242
1909.07	230
1917.26	238
1925.43	242
1933.6	234
1941.76	218
1949.91	248
1958.05	236
1966.17	246
1974.29	232
1982.4	226
1990.5	246
1998.59	252
2006.67	236
2014.74	236
2022.8	234
2030.85	236
2038.89	244
2046.92	232
2054.94	252
2062.95	244
2070.96	224
2078.95	226
2086.93	244
2094.91	246
2102.87	222
2110.83	230
2118.77	230
2126.71	232
2134.63	224
2142.55	222
2150.46	238
2158.35	230
2166.24	224
2174.12	220
2181.99	246
2189.85	230
2197.7	236
2205.55	228
2213.38	224
2221.2	228
2229.02	240
2236.82	234
2244.62	236
2252.4	224
2260.18	250
2267.95	226
2275.71	228
2283.46	232
2291.2	244
2298.93	230
2306.65	248
2314.37	236
2322.07	238
2329.77	228
2337.45	238
2345.13	222
2352.8	230
2360.46	236
2368.11	230
2375.75	246
2383.38	240
2391.01	226
2398.62	256
2406.23	242
2413.82	234
2421.41	224
2428.99	224
2436.56	244
2444.12	212
2449.79	242