File: Mixture_Classification/Jesse_Dataset_v2/Pure Raman/Polypropylene oxide/633nm/ps-ppo-7jan25-0,0000-map2_Y08_X03.txt
182.393	702
192.79	576
203.174	514
213.542	456
223.897	564
234.238	1256
244.566	870
254.878	448
265.178	284
275.463	276
285.734	378
295.992	620
306.236	460
316.467	346
326.684	376
336.887	396
347.075	326
357.251	352
367.413	314
377.562	294
387.697	250
397.819	234
407.926	268
418.02	352
428.101	228
438.169	182
448.223	168
458.264	166
468.291	226
478.306	376
488.307	440
498.294	236
508.269	254
518.23	310
528.177	384
538.113	764
548.034	440
557.942	476
567.838	2620
577.72	1530
587.589	574
597.446	430
607.289	240
617.119	220
626.936	262
636.741	336
646.533	242
656.313	188
666.078	176
675.831	160
685.571	172
695.299	168
705.014	188
714.716	236
724.406	208
734.082	222
743.746	266
753.398	282
763.037	202
772.664	194
782.278	214
791.879	194
801.467	190
811.044	176
820.608	236
830.16	760
839.699	396
849.226	252
858.741	228
868.243	212
877.731	188
887.209	182
896.674	172
906.128	182
915.569	162
924.997	200
934.414	194
943.818	258
953.211	552
962.59	858
971.958	416
981.314	254
990.659	250
999.99	182
1009.31	182
1018.62	226
1027.91	252
1037.2	278
1046.47	228
1055.73	200
1064.98	190
1074.22	192
1083.44	206
1092.65	218
1101.86	252
1111.05	818
1120.22	370
1129.39	266
1138.54	256
1147.69	230
1156.82	246
1165.94	258
1175.05	270
1184.14	568
1193.23	434
1202.3	472
1211.36	308
1220.41	244
1229.45	342
1238.48	244
1247.5	228
1256.5	232
1265.49	242
1274.48	262
1283.45	346
1292.41	504
1301.36	1516
1310.29	1306
1319.22	564
1328.13	488
1337.04	344
1345.93	356
1354.81	372
1363.68	306
1372.54	512
1381.38	1018
1390.22	394
1399.05	268
1407.86	266
1416.66	314
1425.46	380
1434.24	474
1443.01	478
1451.77	388
1460.52	362
1469.25	354
1477.98	368
1486.7	302
1495.4	284
1504.1	286
1512.78	264
1521.45	268
1530.11	276
1538.76	274
1547.41	264
1556.03	272
1564.65	276
1573.26	332
1581.86	464
1590.45	766
1599.02	1336
1607.59	1296
1616.14	750
1624.69	386
1633.22	278
1641.75	240
1650.26	232
1658.76	238
1667.26	236
1675.74	234
1684.21	228
1692.67	254
1701.12	228
1709.56	252
1717.99	216
1726.41	214
1734.82	222
1743.22	212
1751.61	200
1759.99	226
1768.36	242
1776.71	214
1785.06	228
1793.4	216
1801.73	200
1810.04	202
1818.35	198
1826.65	212
1834.94	206
1843.21	194
1851.48	196
1859.74	200
1867.98	206
1876.22	220
1884.45	208
1892.67	214
1900.87	206
1909.07	202
1917.26	216
1925.43	212
1933.6	198
1941.76	208
1949.91	204
1958.05	194
1966.17	202
1974.29	188
1982.4	214
1990.5	202
1998.59	216
2006.67	208
2014.74	212
2022.8	194
2030.85	216
2038.89	220
2046.92	210
2054.94	206
2062.95	202
2070.96	210
2078.95	214
2086.93	210
2094.91	218
2102.87	200
2110.83	206
2118.77	194
2126.71	212
2134.63	222
2142.55	200
2150.46	228
2158.35	208
2166.24	218
2174.12	206
2181.99	208
2189.85	208
2197.7	200
2205.55	194
2213.38	218
2221.2	212
2229.02	204
2236.82	202
2244.62	216
2252.4	206
2260.18	214
2267.95	208
2275.71	212
2283.46	208
2291.2	206
2298.93	220
2306.65	220
2314.37	222
2322.07	234
2329.77	224
2337.45	204
2345.13	224
2352.8	220
2360.46	198
2368.11	206
2375.75	218
2383.38	208
2391.01	218
2398.62	232
2406.23	210
2413.82	224
2421.41	216
2428.99	196
2436.56	196
2444.12	212
2449.79	208