File: Mixture_Classification/Jesse_Dataset_v2/Pure Raman/Polypropylene oxide/633nm/ps-ppo-7jan25-0,0000-map2_Y00_X08.txt
182.393	704
192.79	636
203.174	568
213.542	502
223.897	634
234.238	1328
244.566	906
254.878	492
265.178	358
275.463	324
285.734	420
295.992	680
306.236	458
316.467	404
326.684	392
336.887	430
347.075	380
357.251	406
367.413	356
377.562	364
387.697	280
397.819	276
407.926	328
418.02	386
428.101	286
438.169	220
448.223	196
458.264	204
468.291	276
478.306	454
488.307	514
498.294	288
508.269	304
518.23	366
528.177	444
538.113	824
548.034	516
557.942	574
567.838	2820
577.72	1608
587.589	654
597.446	462
607.289	284
617.119	272
626.936	304
636.741	370
646.533	296
656.313	254
666.078	226
675.831	196
685.571	214
695.299	216
705.014	238
714.716	298
724.406	230
734.082	256
743.746	314
753.398	336
763.037	256
772.664	242
782.278	282
791.879	250
801.467	230
811.044	258
820.608	296
830.16	888
839.699	448
849.226	300
858.741	276
868.243	258
877.731	250
887.209	228
896.674	218
906.128	244
915.569	228
924.997	216
934.414	248
943.818	296
953.211	612
962.59	952
971.958	520
981.314	282
990.659	274
999.99	260
1009.31	250
1018.62	294
1027.91	294
1037.2	348
1046.47	276
1055.73	256
1064.98	234
1074.22	248
1083.44	240
1092.65	258
1101.86	304
1111.05	880
1120.22	426
1129.39	296
1138.54	298
1147.69	268
1156.82	292
1165.94	312
1175.05	296
1184.14	598
1193.23	490
1202.3	514
1211.36	358
1220.41	296
1229.45	406
1238.48	296
1247.5	284
1256.5	280
1265.49	276
1274.48	304
1283.45	418
1292.41	558
1301.36	1596
1310.29	1360
1319.22	612
1328.13	516
1337.04	384
1345.93	402
1354.81	386
1363.68	368
1372.54	608
1381.38	1100
1390.22	456
1399.05	340
1407.86	338
1416.66	378
1425.46	434
1434.24	502
1443.01	538
1451.77	444
1460.52	436
1469.25	416
1477.98	400
1486.7	352
1495.4	322
1504.1	320
1512.78	318
1521.45	326
1530.11	316
1538.76	308
1547.41	340
1556.03	344
1564.65	350
1573.26	402
1581.86	528
1590.45	810
1599.02	1412
1607.59	1326
1616.14	798
1624.69	462
1633.22	332
1641.75	316
1650.26	290
1658.76	282
1667.26	272
1675.74	274
1684.21	308
1692.67	294
1701.12	282
1709.56	284
1717.99	262
1726.41	284
1734.82	266
1743.22	262
1751.61	252
1759.99	264
1768.36	248
1776.71	272
1785.06	244
1793.4	252
1801.73	254
1810.04	254
1818.35	248
1826.65	234
1834.94	262
1843.21	256
1851.48	250
1859.74	266
1867.98	240
1876.22	264
1884.45	252
1892.67	242
1900.87	260
1909.07	260
1917.26	252
1925.43	262
1933.6	264
1941.76	256
1949.91	272
1958.05	250
1966.17	262
1974.29	268
1982.4	260
1990.5	264
1998.59	250
2006.67	254
2014.74	264
2022.8	258
2030.85	252
2038.89	242
2046.92	276
2054.94	254
2062.95	262
2070.96	240
2078.95	254
2086.93	246
2094.91	248
2102.87	248
2110.83	252
2118.77	236
2126.71	246
2134.63	244
2142.55	248
2150.46	242
2158.35	236
2166.24	264
2174.12	236
2181.99	230
2189.85	250
2197.7	240
2205.55	238
2213.38	248
2221.2	262
2229.02	230
2236.82	234
2244.62	228
2252.4	250
2260.18	220
2267.95	262
2275.71	230
2283.46	222
2291.2	238
2298.93	244
2306.65	270
2314.37	262
2322.07	252
2329.77	258
2337.45	274
2345.13	250
2352.8	228
2360.46	268
2368.11	244
2375.75	256
2383.38	230
2391.01	224
2398.62	254
2406.23	262
2413.82	256
2421.41	232
2428.99	242
2436.56	232
2444.12	244
2449.79	248