File: Mixture_Classification/Jesse_Dataset_v2/Pure Raman/Polypropylene oxide/633nm/ps-ppo-7jan25-0,0000-map2_Y07_X01.txt
182.393	684
192.79	608
203.174	516
213.542	448
223.897	624
234.238	1254
244.566	908
254.878	480
265.178	312
275.463	280
285.734	368
295.992	634
306.236	486
316.467	398
326.684	388
336.887	448
347.075	340
357.251	368
367.413	324
377.562	314
387.697	268
397.819	230
407.926	292
418.02	362
428.101	232
438.169	196
448.223	170
458.264	184
468.291	240
478.306	404
488.307	458
498.294	226
508.269	274
518.23	330
528.177	396
538.113	730
548.034	452
557.942	518
567.838	2686
577.72	1558
587.589	590
597.446	438
607.289	226
617.119	232
626.936	280
636.741	344
646.533	250
656.313	204
666.078	190
675.831	162
685.571	180
695.299	170
705.014	182
714.716	266
724.406	192
734.082	212
743.746	266
753.398	286
763.037	212
772.664	200
782.278	216
791.879	202
801.467	212
811.044	212
820.608	244
830.16	806
839.699	388
849.226	274
858.741	232
868.243	212
877.731	200
887.209	194
896.674	184
906.128	194
915.569	184
924.997	182
934.414	212
943.818	258
953.211	560
962.59	890
971.958	438
981.314	250
990.659	246
999.99	186
1009.31	200
1018.62	228
1027.91	272
1037.2	292
1046.47	238
1055.73	196
1064.98	210
1074.22	196
1083.44	204
1092.65	196
1101.86	238
1111.05	840
1120.22	410
1129.39	272
1138.54	246
1147.69	240
1156.82	264
1165.94	252
1175.05	270
1184.14	570
1193.23	464
1202.3	448
1211.36	312
1220.41	248
1229.45	360
1238.48	262
1247.5	236
1256.5	228
1265.49	246
1274.48	282
1283.45	356
1292.41	502
1301.36	1526
1310.29	1260
1319.22	562
1328.13	456
1337.04	348
1345.93	380
1354.81	364
1363.68	302
1372.54	546
1381.38	1030
1390.22	400
1399.05	284
1407.86	268
1416.66	318
1425.46	408
1434.24	462
1443.01	516
1451.77	400
1460.52	370
1469.25	370
1477.98	370
1486.7	332
1495.4	284
1504.1	274
1512.78	292
1521.45	288
1530.11	294
1538.76	264
1547.41	278
1556.03	294
1564.65	334
1573.26	342
1581.86	438
1590.45	800
1599.02	1346
1607.59	1302
1616.14	754
1624.69	398
1633.22	292
1641.75	258
1650.26	240
1658.76	228
1667.26	222
1675.74	234
1684.21	244
1692.67	268
1701.12	242
1709.56	248
1717.99	224
1726.41	226
1734.82	192
1743.22	218
1751.61	216
1759.99	222
1768.36	218
1776.71	208
1785.06	204
1793.4	204
1801.73	208
1810.04	228
1818.35	198
1826.65	212
1834.94	208
1843.21	212
1851.48	224
1859.74	214
1867.98	192
1876.22	204
1884.45	202
1892.67	204
1900.87	208
1909.07	210
1917.26	212
1925.43	200
1933.6	208
1941.76	208
1949.91	198
1958.05	222
1966.17	220
1974.29	226
1982.4	228
1990.5	188
1998.59	222
2006.67	204
2014.74	202
2022.8	198
2030.85	214
2038.89	236
2046.92	202
2054.94	210
2062.95	206
2070.96	210
2078.95	216
2086.93	214
2094.91	222
2102.87	220
2110.83	196
2118.77	210
2126.71	206
2134.63	212
2142.55	200
2150.46	212
2158.35	212
2166.24	212
2174.12	218
2181.99	196
2189.85	214
2197.7	202
2205.55	200
2213.38	200
2221.2	200
2229.02	220
2236.82	200
2244.62	210
2252.4	216
2260.18	202
2267.95	198
2275.71	208
2283.46	212
2291.2	208
2298.93	202
2306.65	212
2314.37	232
2322.07	228
2329.77	212
2337.45	194
2345.13	238
2352.8	206
2360.46	206
2368.11	210
2375.75	234
2383.38	202
2391.01	210
2398.62	214
2406.23	216
2413.82	222
2421.41	200
2428.99	190
2436.56	210
2444.12	202
2449.79	212