File: Mixture_Classification/Jesse_Dataset_v2/Pure Raman/Polypropylene oxide/633nm/ps-ppo-7jan25-0,0000-map2_Y01_X05.txt
182.393	708
192.79	624
203.174	540
213.542	450
223.897	634
234.238	1330
244.566	878
254.878	490
265.178	334
275.463	298
285.734	406
295.992	652
306.236	484
316.467	360
326.684	360
336.887	398
347.075	350
357.251	406
367.413	336
377.562	334
387.697	278
397.819	254
407.926	310
418.02	354
428.101	250
438.169	204
448.223	184
458.264	194
468.291	242
478.306	384
488.307	486
498.294	232
508.269	254
518.23	328
528.177	384
538.113	788
548.034	456
557.942	504
567.838	2768
577.72	1572
587.589	622
597.446	452
607.289	234
617.119	232
626.936	280
636.741	342
646.533	256
656.313	220
666.078	190
675.831	184
685.571	174
695.299	172
705.014	182
714.716	246
724.406	208
734.082	202
743.746	300
753.398	302
763.037	224
772.664	214
782.278	238
791.879	200
801.467	204
811.044	210
820.608	224
830.16	844
839.699	408
849.226	258
858.741	252
868.243	222
877.731	200
887.209	190
896.674	176
906.128	196
915.569	188
924.997	186
934.414	216
943.818	262
953.211	544
962.59	912
971.958	442
981.314	248
990.659	236
999.99	212
1009.31	216
1018.62	232
1027.91	272
1037.2	272
1046.47	242
1055.73	204
1064.98	210
1074.22	224
1083.44	230
1092.65	212
1101.86	238
1111.05	810
1120.22	396
1129.39	258
1138.54	272
1147.69	228
1156.82	252
1165.94	258
1175.05	292
1184.14	586
1193.23	462
1202.3	486
1211.36	330
1220.41	256
1229.45	356
1238.48	244
1247.5	234
1256.5	238
1265.49	258
1274.48	294
1283.45	348
1292.41	504
1301.36	1566
1310.29	1340
1319.22	550
1328.13	438
1337.04	350
1345.93	370
1354.81	360
1363.68	334
1372.54	558
1381.38	1064
1390.22	392
1399.05	270
1407.86	298
1416.66	346
1425.46	428
1434.24	448
1443.01	512
1451.77	430
1460.52	424
1469.25	368
1477.98	380
1486.7	332
1495.4	284
1504.1	284
1512.78	286
1521.45	272
1530.11	286
1538.76	266
1547.41	282
1556.03	290
1564.65	310
1573.26	372
1581.86	474
1590.45	784
1599.02	1378
1607.59	1302
1616.14	740
1624.69	400
1633.22	324
1641.75	284
1650.26	254
1658.76	260
1667.26	220
1675.74	228
1684.21	242
1692.67	270
1701.12	258
1709.56	248
1717.99	248
1726.41	234
1734.82	226
1743.22	226
1751.61	220
1759.99	228
1768.36	208
1776.71	204
1785.06	212
1793.4	224
1801.73	250
1810.04	236
1818.35	226
1826.65	210
1834.94	216
1843.21	212
1851.48	232
1859.74	228
1867.98	232
1876.22	220
1884.45	226
1892.67	224
1900.87	240
1909.07	200
1917.26	234
1925.43	228
1933.6	216
1941.76	208
1949.91	226
1958.05	212
1966.17	240
1974.29	236
1982.4	206
1990.5	226
1998.59	238
2006.67	218
2014.74	224
2022.8	222
2030.85	226
2038.89	230
2046.92	238
2054.94	218
2062.95	224
2070.96	226
2078.95	230
2086.93	210
2094.91	220
2102.87	220
2110.83	224
2118.77	226
2126.71	228
2134.63	222
2142.55	230
2150.46	220
2158.35	210
2166.24	218
2174.12	214
2181.99	222
2189.85	206
2197.7	210
2205.55	222
2213.38	214
2221.2	216
2229.02	218
2236.82	208
2244.62	218
2252.4	218
2260.18	214
2267.95	218
2275.71	224
2283.46	220
2291.2	220
2298.93	212
2306.65	232
2314.37	250
2322.07	220
2329.77	222
2337.45	222
2345.13	222
2352.8	218
2360.46	226
2368.11	226
2375.75	220
2383.38	232
2391.01	230
2398.62	246
2406.23	236
2413.82	232
2421.41	230
2428.99	224
2436.56	198
2444.12	242
2449.79	212