File: Mixture_Classification/Jesse_Dataset_v2/Pure Raman/Polypropylene oxide/633nm/ps-ppo-7jan25-0,0000-map2_Y04_X03.txt
182.393	710
192.79	608
203.174	520
213.542	470
223.897	638
234.238	1260
244.566	876
254.878	466
265.178	302
275.463	276
285.734	364
295.992	584
306.236	460
316.467	396
326.684	398
336.887	410
347.075	346
357.251	360
367.413	312
377.562	306
387.697	246
397.819	232
407.926	262
418.02	358
428.101	232
438.169	180
448.223	174
458.264	176
468.291	234
478.306	364
488.307	436
498.294	236
508.269	236
518.23	324
528.177	384
538.113	796
548.034	446
557.942	522
567.838	2694
577.72	1548
587.589	578
597.446	422
607.289	252
617.119	206
626.936	282
636.741	316
646.533	248
656.313	214
666.078	180
675.831	164
685.571	164
695.299	170
705.014	182
714.716	250
724.406	212
734.082	216
743.746	268
753.398	302
763.037	214
772.664	210
782.278	202
791.879	200
801.467	194
811.044	208
820.608	222
830.16	780
839.699	420
849.226	272
858.741	238
868.243	200
877.731	180
887.209	186
896.674	178
906.128	180
915.569	178
924.997	178
934.414	186
943.818	256
953.211	556
962.59	934
971.958	448
981.314	224
990.659	228
999.99	212
1009.31	196
1018.62	228
1027.91	260
1037.2	276
1046.47	238
1055.73	198
1064.98	194
1074.22	192
1083.44	218
1092.65	216
1101.86	232
1111.05	834
1120.22	374
1129.39	276
1138.54	252
1147.69	224
1156.82	236
1165.94	270
1175.05	276
1184.14	576
1193.23	468
1202.3	472
1211.36	260
1220.41	268
1229.45	338
1238.48	256
1247.5	204
1256.5	244
1265.49	256
1274.48	254
1283.45	350
1292.41	506
1301.36	1574
1310.29	1342
1319.22	538
1328.13	454
1337.04	354
1345.93	358
1354.81	330
1363.68	314
1372.54	532
1381.38	1062
1390.22	390
1399.05	250
1407.86	280
1416.66	324
1425.46	414
1434.24	486
1443.01	478
1451.77	392
1460.52	380
1469.25	378
1477.98	360
1486.7	312
1495.4	292
1504.1	276
1512.78	280
1521.45	272
1530.11	258
1538.76	244
1547.41	278
1556.03	286
1564.65	288
1573.26	348
1581.86	460
1590.45	780
1599.02	1364
1607.59	1264
1616.14	752
1624.69	402
1633.22	326
1641.75	270
1650.26	256
1658.76	242
1667.26	234
1675.74	214
1684.21	226
1692.67	254
1701.12	260
1709.56	230
1717.99	234
1726.41	216
1734.82	222
1743.22	222
1751.61	214
1759.99	210
1768.36	234
1776.71	198
1785.06	202
1793.4	222
1801.73	208
1810.04	202
1818.35	202
1826.65	208
1834.94	212
1843.21	212
1851.48	220
1859.74	206
1867.98	210
1876.22	202
1884.45	196
1892.67	208
1900.87	210
1909.07	198
1917.26	222
1925.43	214
1933.6	214
1941.76	204
1949.91	206
1958.05	218
1966.17	206
1974.29	206
1982.4	206
1990.5	202
1998.59	202
2006.67	198
2014.74	194
2022.8	194
2030.85	212
2038.89	214
2046.92	210
2054.94	208
2062.95	214
2070.96	214
2078.95	208
2086.93	196
2094.91	214
2102.87	216
2110.83	204
2118.77	218
2126.71	202
2134.63	208
2142.55	214
2150.46	198
2158.35	192
2166.24	212
2174.12	198
2181.99	224
2189.85	202
2197.7	184
2205.55	208
2213.38	212
2221.2	210
2229.02	226
2236.82	216
2244.62	208
2252.4	186
2260.18	212
2267.95	196
2275.71	206
2283.46	226
2291.2	216
2298.93	224
2306.65	222
2314.37	230
2322.07	234
2329.77	224
2337.45	210
2345.13	210
2352.8	236
2360.46	208
2368.11	218
2375.75	216
2383.38	218
2391.01	218
2398.62	210
2406.23	236
2413.82	218
2421.41	210
2428.99	212
2436.56	218
2444.12	202
2449.79	206