File: Mixture_Classification/Jesse_Dataset_v2/Pure Raman/Polypropylene oxide/633nm/ps-ppo-7jan25-0,0000-map2_Y10_X07.txt
182.393	628
192.79	580
203.174	482
213.542	434
223.897	564
234.238	1194
244.566	864
254.878	468
265.178	310
275.463	254
285.734	372
295.992	584
306.236	428
316.467	344
326.684	336
336.887	390
347.075	330
357.251	338
367.413	324
377.562	286
387.697	226
397.819	210
407.926	268
418.02	308
428.101	222
438.169	174
448.223	182
458.264	158
468.291	212
478.306	410
488.307	450
498.294	222
508.269	258
518.23	304
528.177	364
538.113	740
548.034	458
557.942	482
567.838	2454
577.72	1554
587.589	556
597.446	440
607.289	240
617.119	214
626.936	266
636.741	296
646.533	226
656.313	184
666.078	170
675.831	160
685.571	176
695.299	146
705.014	184
714.716	244
724.406	206
734.082	198
743.746	252
753.398	284
763.037	194
772.664	188
782.278	222
791.879	172
801.467	172
811.044	198
820.608	234
830.16	734
839.699	404
849.226	244
858.741	234
868.243	208
877.731	198
887.209	172
896.674	174
906.128	174
915.569	158
924.997	178
934.414	208
943.818	226
953.211	504
962.59	844
971.958	426
981.314	232
990.659	230
999.99	200
1009.31	206
1018.62	202
1027.91	258
1037.2	250
1046.47	216
1055.73	186
1064.98	194
1074.22	200
1083.44	200
1092.65	224
1101.86	242
1111.05	772
1120.22	364
1129.39	264
1138.54	226
1147.69	216
1156.82	230
1165.94	242
1175.05	264
1184.14	536
1193.23	412
1202.3	426
1211.36	288
1220.41	246
1229.45	322
1238.48	242
1247.5	220
1256.5	206
1265.49	238
1274.48	260
1283.45	350
1292.41	492
1301.36	1452
1310.29	1270
1319.22	542
1328.13	452
1337.04	344
1345.93	342
1354.81	348
1363.68	296
1372.54	504
1381.38	986
1390.22	402
1399.05	268
1407.86	288
1416.66	312
1425.46	404
1434.24	446
1443.01	482
1451.77	378
1460.52	356
1469.25	342
1477.98	328
1486.7	292
1495.4	294
1504.1	278
1512.78	260
1521.45	270
1530.11	276
1538.76	262
1547.41	282
1556.03	272
1564.65	292
1573.26	346
1581.86	436
1590.45	752
1599.02	1322
1607.59	1192
1616.14	686
1624.69	394
1633.22	266
1641.75	248
1650.26	232
1658.76	236
1667.26	212
1675.74	230
1684.21	238
1692.67	248
1701.12	256
1709.56	236
1717.99	218
1726.41	212
1734.82	222
1743.22	204
1751.61	224
1759.99	208
1768.36	204
1776.71	230
1785.06	226
1793.4	210
1801.73	202
1810.04	224
1818.35	206
1826.65	216
1834.94	214
1843.21	214
1851.48	204
1859.74	216
1867.98	212
1876.22	222
1884.45	212
1892.67	214
1900.87	206
1909.07	204
1917.26	220
1925.43	224
1933.6	202
1941.76	222
1949.91	212
1958.05	204
1966.17	218
1974.29	200
1982.4	212
1990.5	198
1998.59	206
2006.67	214
2014.74	218
2022.8	204
2030.85	220
2038.89	206
2046.92	212
2054.94	202
2062.95	202
2070.96	224
2078.95	226
2086.93	210
2094.91	226
2102.87	214
2110.83	196
2118.77	218
2126.71	228
2134.63	212
2142.55	204
2150.46	208
2158.35	214
2166.24	206
2174.12	210
2181.99	210
2189.85	222
2197.7	208
2205.55	202
2213.38	232
2221.2	228
2229.02	216
2236.82	204
2244.62	200
2252.4	218
2260.18	198
2267.95	224
2275.71	214
2283.46	218
2291.2	218
2298.93	226
2306.65	208
2314.37	210
2322.07	224
2329.77	216
2337.45	222
2345.13	216
2352.8	210
2360.46	208
2368.11	214
2375.75	214
2383.38	222
2391.01	222
2398.62	210
2406.23	218
2413.82	226
2421.41	210
2428.99	208
2436.56	214
2444.12	208
2449.79	216