File: Mixture_Classification/Jesse_Dataset_v2/Pure Raman/Polypropylene oxide/633nm/ps-ppo-7jan25-0,0000-map2_Y03_X10.txt
182.393	748
192.79	618
203.174	532
213.542	460
223.897	584
234.238	1294
244.566	862
254.878	498
265.178	308
275.463	304
285.734	408
295.992	668
306.236	498
316.467	410
326.684	378
336.887	452
347.075	364
357.251	378
367.413	356
377.562	344
387.697	268
397.819	286
407.926	312
418.02	374
428.101	272
438.169	218
448.223	198
458.264	214
468.291	272
478.306	426
488.307	486
498.294	256
508.269	282
518.23	344
528.177	406
538.113	802
548.034	488
557.942	528
567.838	2726
577.72	1580
587.589	612
597.446	464
607.289	250
617.119	252
626.936	306
636.741	348
646.533	264
656.313	226
666.078	192
675.831	184
685.571	188
695.299	188
705.014	198
714.716	274
724.406	222
734.082	236
743.746	304
753.398	314
763.037	210
772.664	224
782.278	248
791.879	224
801.467	224
811.044	246
820.608	262
830.16	814
839.699	400
849.226	296
858.741	268
868.243	208
877.731	200
887.209	200
896.674	216
906.128	194
915.569	194
924.997	208
934.414	226
943.818	254
953.211	608
962.59	920
971.958	468
981.314	260
990.659	258
999.99	218
1009.31	220
1018.62	244
1027.91	278
1037.2	312
1046.47	256
1055.73	232
1064.98	228
1074.22	226
1083.44	214
1092.65	232
1101.86	258
1111.05	876
1120.22	406
1129.39	284
1138.54	256
1147.69	256
1156.82	262
1165.94	304
1175.05	294
1184.14	580
1193.23	466
1202.3	490
1211.36	310
1220.41	270
1229.45	368
1238.48	282
1247.5	258
1256.5	256
1265.49	286
1274.48	298
1283.45	384
1292.41	534
1301.36	1608
1310.29	1348
1319.22	582
1328.13	492
1337.04	368
1345.93	386
1354.81	372
1363.68	332
1372.54	568
1381.38	1078
1390.22	416
1399.05	328
1407.86	314
1416.66	354
1425.46	438
1434.24	480
1443.01	532
1451.77	452
1460.52	412
1469.25	378
1477.98	394
1486.7	338
1495.4	320
1504.1	298
1512.78	316
1521.45	302
1530.11	310
1538.76	310
1547.41	306
1556.03	324
1564.65	334
1573.26	376
1581.86	482
1590.45	810
1599.02	1388
1607.59	1338
1616.14	754
1624.69	426
1633.22	322
1641.75	274
1650.26	260
1658.76	268
1667.26	256
1675.74	246
1684.21	258
1692.67	266
1701.12	274
1709.56	274
1717.99	266
1726.41	262
1734.82	242
1743.22	234
1751.61	236
1759.99	258
1768.36	242
1776.71	242
1785.06	238
1793.4	244
1801.73	244
1810.04	238
1818.35	238
1826.65	234
1834.94	232
1843.21	238
1851.48	250
1859.74	232
1867.98	226
1876.22	232
1884.45	232
1892.67	242
1900.87	218
1909.07	246
1917.26	234
1925.43	230
1933.6	224
1941.76	230
1949.91	230
1958.05	216
1966.17	228
1974.29	224
1982.4	236
1990.5	238
1998.59	232
2006.67	232
2014.74	234
2022.8	228
2030.85	228
2038.89	222
2046.92	244
2054.94	224
2062.95	238
2070.96	232
2078.95	246
2086.93	258
2094.91	232
2102.87	230
2110.83	232
2118.77	234
2126.71	218
2134.63	218
2142.55	234
2150.46	216
2158.35	228
2166.24	226
2174.12	230
2181.99	208
2189.85	228
2197.7	244
2205.55	234
2213.38	220
2221.2	224
2229.02	230
2236.82	230
2244.62	240
2252.4	226
2260.18	238
2267.95	222
2275.71	228
2283.46	246
2291.2	238
2298.93	224
2306.65	234
2314.37	230
2322.07	250
2329.77	234
2337.45	232
2345.13	216
2352.8	232
2360.46	220
2368.11	232
2375.75	218
2383.38	248
2391.01	232
2398.62	248
2406.23	240
2413.82	230
2421.41	204
2428.99	212
2436.56	232
2444.12	220
2449.79	232