File: Mixture_Classification/Jesse_Dataset_v2/Pure Raman/Polypropylene oxide/633nm/ps-ppo-7jan25-0,0000-map2_Y07_X08.txt
182.393	678
192.79	580
203.174	514
213.542	432
223.897	596
234.238	1246
244.566	848
254.878	480
265.178	322
275.463	276
285.734	374
295.992	602
306.236	464
316.467	344
326.684	368
336.887	408
347.075	318
357.251	342
367.413	306
377.562	300
387.697	244
397.819	234
407.926	276
418.02	326
428.101	230
438.169	182
448.223	166
458.264	172
468.291	226
478.306	376
488.307	444
498.294	230
508.269	244
518.23	298
528.177	374
538.113	750
548.034	452
557.942	470
567.838	2650
577.72	1572
587.589	604
597.446	416
607.289	224
617.119	220
626.936	258
636.741	310
646.533	234
656.313	192
666.078	166
675.831	164
685.571	162
695.299	168
705.014	188
714.716	238
724.406	202
734.082	198
743.746	274
753.398	280
763.037	200
772.664	190
782.278	212
791.879	180
801.467	180
811.044	200
820.608	238
830.16	776
839.699	384
849.226	260
858.741	212
868.243	188
877.731	196
887.209	152
896.674	162
906.128	182
915.569	174
924.997	168
934.414	202
943.818	270
953.211	488
962.59	886
971.958	460
981.314	254
990.659	216
999.99	194
1009.31	186
1018.62	230
1027.91	274
1037.2	248
1046.47	228
1055.73	208
1064.98	196
1074.22	196
1083.44	216
1092.65	192
1101.86	228
1111.05	812
1120.22	354
1129.39	240
1138.54	246
1147.69	228
1156.82	246
1165.94	242
1175.05	276
1184.14	546
1193.23	432
1202.3	444
1211.36	296
1220.41	242
1229.45	334
1238.48	248
1247.5	216
1256.5	228
1265.49	248
1274.48	246
1283.45	322
1292.41	476
1301.36	1478
1310.29	1306
1319.22	558
1328.13	460
1337.04	340
1345.93	350
1354.81	360
1363.68	300
1372.54	528
1381.38	1020
1390.22	408
1399.05	268
1407.86	286
1416.66	316
1425.46	402
1434.24	440
1443.01	484
1451.77	402
1460.52	364
1469.25	362
1477.98	360
1486.7	318
1495.4	282
1504.1	262
1512.78	268
1521.45	272
1530.11	256
1538.76	274
1547.41	268
1556.03	298
1564.65	292
1573.26	354
1581.86	436
1590.45	750
1599.02	1362
1607.59	1254
1616.14	748
1624.69	394
1633.22	276
1641.75	248
1650.26	226
1658.76	226
1667.26	216
1675.74	216
1684.21	230
1692.67	242
1701.12	230
1709.56	238
1717.99	236
1726.41	220
1734.82	214
1743.22	196
1751.61	230
1759.99	200
1768.36	204
1776.71	194
1785.06	200
1793.4	200
1801.73	196
1810.04	202
1818.35	212
1826.65	200
1834.94	212
1843.21	196
1851.48	200
1859.74	204
1867.98	194
1876.22	202
1884.45	186
1892.67	208
1900.87	200
1909.07	204
1917.26	192
1925.43	194
1933.6	214
1941.76	190
1949.91	200
1958.05	210
1966.17	198
1974.29	218
1982.4	210
1990.5	210
1998.59	198
2006.67	214
2014.74	210
2022.8	198
2030.85	212
2038.89	218
2046.92	194
2054.94	230
2062.95	196
2070.96	216
2078.95	218
2086.93	196
2094.91	202
2102.87	210
2110.83	194
2118.77	208
2126.71	206
2134.63	218
2142.55	192
2150.46	200
2158.35	200
2166.24	204
2174.12	214
2181.99	204
2189.85	188
2197.7	210
2205.55	216
2213.38	202
2221.2	210
2229.02	208
2236.82	204
2244.62	206
2252.4	204
2260.18	206
2267.95	214
2275.71	192
2283.46	222
2291.2	190
2298.93	210
2306.65	222
2314.37	208
2322.07	212
2329.77	230
2337.45	224
2345.13	216
2352.8	204
2360.46	208
2368.11	192
2375.75	220
2383.38	214
2391.01	216
2398.62	224
2406.23	210
2413.82	224
2421.41	200
2428.99	212
2436.56	200
2444.12	198
2449.79	216