File: Mixture_Classification/Jesse_Dataset_v2/Pure Raman/Polypropylene oxide/633nm/ps-ppo-7jan25-0,0000-map2_Y02_X00.txt
182.393	774
192.79	640
203.174	582
213.542	510
223.897	628
234.238	1350
244.566	902
254.878	490
265.178	336
275.463	324
285.734	412
295.992	656
306.236	514
316.467	400
326.684	386
336.887	448
347.075	368
357.251	410
367.413	366
377.562	342
387.697	290
397.819	276
407.926	322
418.02	398
428.101	262
438.169	244
448.223	224
458.264	224
468.291	294
478.306	428
488.307	484
498.294	284
508.269	302
518.23	342
528.177	434
538.113	820
548.034	468
557.942	522
567.838	2786
577.72	1596
587.589	652
597.446	490
607.289	286
617.119	254
626.936	328
636.741	374
646.533	280
656.313	240
666.078	200
675.831	208
685.571	202
695.299	198
705.014	212
714.716	300
724.406	260
734.082	250
743.746	318
753.398	338
763.037	254
772.664	236
782.278	262
791.879	244
801.467	238
811.044	252
820.608	294
830.16	852
839.699	456
849.226	316
858.741	268
868.243	256
877.731	254
887.209	224
896.674	232
906.128	238
915.569	218
924.997	220
934.414	276
943.818	312
953.211	584
962.59	940
971.958	514
981.314	290
990.659	310
999.99	244
1009.31	248
1018.62	272
1027.91	316
1037.2	332
1046.47	264
1055.73	270
1064.98	264
1074.22	238
1083.44	250
1092.65	254
1101.86	302
1111.05	916
1120.22	444
1129.39	308
1138.54	288
1147.69	274
1156.82	278
1165.94	316
1175.05	328
1184.14	634
1193.23	500
1202.3	530
1211.36	356
1220.41	298
1229.45	392
1238.48	306
1247.5	284
1256.5	266
1265.49	308
1274.48	324
1283.45	388
1292.41	566
1301.36	1682
1310.29	1346
1319.22	616
1328.13	526
1337.04	374
1345.93	406
1354.81	408
1363.68	360
1372.54	606
1381.38	1098
1390.22	452
1399.05	342
1407.86	308
1416.66	368
1425.46	492
1434.24	508
1443.01	554
1451.77	436
1460.52	424
1469.25	412
1477.98	390
1486.7	354
1495.4	342
1504.1	312
1512.78	306
1521.45	324
1530.11	322
1538.76	312
1547.41	330
1556.03	320
1564.65	380
1573.26	396
1581.86	512
1590.45	838
1599.02	1424
1607.59	1376
1616.14	800
1624.69	448
1633.22	350
1641.75	294
1650.26	270
1658.76	284
1667.26	282
1675.74	288
1684.21	304
1692.67	308
1701.12	270
1709.56	302
1717.99	272
1726.41	268
1734.82	270
1743.22	252
1751.61	260
1759.99	240
1768.36	266
1776.71	272
1785.06	254
1793.4	252
1801.73	246
1810.04	272
1818.35	240
1826.65	240
1834.94	274
1843.21	254
1851.48	250
1859.74	252
1867.98	242
1876.22	264
1884.45	256
1892.67	268
1900.87	254
1909.07	278
1917.26	244
1925.43	262
1933.6	240
1941.76	248
1949.91	240
1958.05	232
1966.17	248
1974.29	246
1982.4	246
1990.5	266
1998.59	262
2006.67	266
2014.74	268
2022.8	252
2030.85	248
2038.89	248
2046.92	258
2054.94	248
2062.95	250
2070.96	266
2078.95	264
2086.93	246
2094.91	250
2102.87	248
2110.83	252
2118.77	240
2126.71	232
2134.63	258
2142.55	252
2150.46	262
2158.35	244
2166.24	242
2174.12	252
2181.99	248
2189.85	254
2197.7	230
2205.55	236
2213.38	244
2221.2	244
2229.02	232
2236.82	226
2244.62	238
2252.4	244
2260.18	230
2267.95	236
2275.71	240
2283.46	254
2291.2	236
2298.93	228
2306.65	244
2314.37	260
2322.07	250
2329.77	270
2337.45	252
2345.13	248
2352.8	258
2360.46	248
2368.11	252
2375.75	252
2383.38	222
2391.01	240
2398.62	244
2406.23	246
2413.82	242
2421.41	230
2428.99	228
2436.56	210
2444.12	244
2449.79	264