File: Mixture_Classification/Jesse_Dataset_v2/Pure Raman/Polypropylene oxide/633nm/ps-ppo-7jan25-0,0000-map2_Y02_X03.txt
182.393	702
192.79	612
203.174	536
213.542	448
223.897	610
234.238	1234
244.566	862
254.878	464
265.178	326
275.463	288
285.734	368
295.992	642
306.236	474
316.467	352
326.684	370
336.887	410
347.075	346
357.251	366
367.413	322
377.562	306
387.697	250
397.819	234
407.926	274
418.02	348
428.101	226
438.169	180
448.223	172
458.264	180
468.291	226
478.306	372
488.307	438
498.294	248
508.269	270
518.23	302
528.177	398
538.113	780
548.034	452
557.942	496
567.838	2760
577.72	1562
587.589	608
597.446	454
607.289	232
617.119	214
626.936	280
636.741	344
646.533	254
656.313	208
666.078	194
675.831	148
685.571	176
695.299	158
705.014	172
714.716	242
724.406	206
734.082	198
743.746	262
753.398	292
763.037	194
772.664	186
782.278	206
791.879	194
801.467	202
811.044	200
820.608	216
830.16	802
839.699	406
849.226	264
858.741	228
868.243	212
877.731	186
887.209	178
896.674	178
906.128	184
915.569	168
924.997	180
934.414	204
943.818	246
953.211	534
962.59	882
971.958	442
981.314	240
990.659	248
999.99	210
1009.31	196
1018.62	222
1027.91	264
1037.2	272
1046.47	242
1055.73	206
1064.98	184
1074.22	204
1083.44	196
1092.65	208
1101.86	258
1111.05	870
1120.22	372
1129.39	240
1138.54	234
1147.69	218
1156.82	264
1165.94	250
1175.05	266
1184.14	562
1193.23	456
1202.3	482
1211.36	300
1220.41	256
1229.45	356
1238.48	244
1247.5	238
1256.5	228
1265.49	250
1274.48	266
1283.45	352
1292.41	500
1301.36	1596
1310.29	1322
1319.22	536
1328.13	464
1337.04	320
1345.93	374
1354.81	362
1363.68	320
1372.54	556
1381.38	1028
1390.22	376
1399.05	278
1407.86	276
1416.66	324
1425.46	418
1434.24	460
1443.01	518
1451.77	414
1460.52	372
1469.25	394
1477.98	358
1486.7	306
1495.4	292
1504.1	300
1512.78	262
1521.45	276
1530.11	280
1538.76	284
1547.41	270
1556.03	294
1564.65	298
1573.26	360
1581.86	476
1590.45	772
1599.02	1400
1607.59	1290
1616.14	736
1624.69	414
1633.22	266
1641.75	266
1650.26	248
1658.76	242
1667.26	244
1675.74	216
1684.21	232
1692.67	246
1701.12	236
1709.56	240
1717.99	228
1726.41	224
1734.82	196
1743.22	216
1751.61	218
1759.99	218
1768.36	218
1776.71	218
1785.06	228
1793.4	190
1801.73	216
1810.04	218
1818.35	206
1826.65	190
1834.94	198
1843.21	212
1851.48	204
1859.74	206
1867.98	218
1876.22	206
1884.45	206
1892.67	214
1900.87	200
1909.07	214
1917.26	206
1925.43	220
1933.6	214
1941.76	216
1949.91	212
1958.05	210
1966.17	202
1974.29	212
1982.4	206
1990.5	214
1998.59	208
2006.67	222
2014.74	206
2022.8	218
2030.85	216
2038.89	222
2046.92	200
2054.94	210
2062.95	196
2070.96	198
2078.95	218
2086.93	220
2094.91	220
2102.87	208
2110.83	206
2118.77	210
2126.71	226
2134.63	228
2142.55	214
2150.46	196
2158.35	216
2166.24	214
2174.12	222
2181.99	216
2189.85	214
2197.7	194
2205.55	208
2213.38	214
2221.2	210
2229.02	192
2236.82	220
2244.62	226
2252.4	192
2260.18	222
2267.95	220
2275.71	218
2283.46	216
2291.2	228
2298.93	204
2306.65	212
2314.37	218
2322.07	220
2329.77	210
2337.45	228
2345.13	202
2352.8	202
2360.46	228
2368.11	208
2375.75	214
2383.38	200
2391.01	208
2398.62	218
2406.23	232
2413.82	212
2421.41	202
2428.99	200
2436.56	200
2444.12	214
2449.79	202