File: Mixture_Classification/Jesse_Dataset_v2/Pure Raman/Polypropylene oxide/633nm/ps-ppo-7jan25-0,0000-map2_Y06_X00.txt
182.393	708
192.79	636
203.174	544
213.542	464
223.897	604
234.238	1286
244.566	908
254.878	494
265.178	320
275.463	312
285.734	422
295.992	634
306.236	468
316.467	388
326.684	386
336.887	438
347.075	372
357.251	388
367.413	334
377.562	318
387.697	274
397.819	260
407.926	302
418.02	384
428.101	258
438.169	200
448.223	184
458.264	196
468.291	260
478.306	414
488.307	488
498.294	266
508.269	280
518.23	328
528.177	416
538.113	812
548.034	508
557.942	532
567.838	2696
577.72	1526
587.589	624
597.446	492
607.289	272
617.119	246
626.936	320
636.741	352
646.533	264
656.313	232
666.078	196
675.831	188
685.571	188
695.299	186
705.014	210
714.716	268
724.406	236
734.082	236
743.746	300
753.398	310
763.037	218
772.664	222
782.278	230
791.879	224
801.467	230
811.044	226
820.608	260
830.16	814
839.699	438
849.226	292
858.741	252
868.243	222
877.731	210
887.209	226
896.674	206
906.128	220
915.569	184
924.997	204
934.414	230
943.818	280
953.211	564
962.59	914
971.958	502
981.314	288
990.659	280
999.99	226
1009.31	210
1018.62	270
1027.91	298
1037.2	300
1046.47	272
1055.73	204
1064.98	202
1074.22	232
1083.44	230
1092.65	232
1101.86	262
1111.05	870
1120.22	404
1129.39	298
1138.54	288
1147.69	258
1156.82	296
1165.94	278
1175.05	298
1184.14	586
1193.23	490
1202.3	516
1211.36	348
1220.41	264
1229.45	362
1238.48	284
1247.5	258
1256.5	268
1265.49	274
1274.48	312
1283.45	404
1292.41	548
1301.36	1642
1310.29	1392
1319.22	594
1328.13	516
1337.04	388
1345.93	408
1354.81	402
1363.68	336
1372.54	570
1381.38	1080
1390.22	440
1399.05	298
1407.86	326
1416.66	366
1425.46	444
1434.24	532
1443.01	530
1451.77	414
1460.52	450
1469.25	414
1477.98	408
1486.7	328
1495.4	316
1504.1	320
1512.78	306
1521.45	302
1530.11	314
1538.76	308
1547.41	320
1556.03	306
1564.65	332
1573.26	408
1581.86	494
1590.45	812
1599.02	1362
1607.59	1316
1616.14	750
1624.69	424
1633.22	358
1641.75	268
1650.26	268
1658.76	270
1667.26	274
1675.74	270
1684.21	270
1692.67	292
1701.12	278
1709.56	266
1717.99	260
1726.41	250
1734.82	262
1743.22	242
1751.61	238
1759.99	248
1768.36	254
1776.71	262
1785.06	244
1793.4	238
1801.73	244
1810.04	242
1818.35	240
1826.65	242
1834.94	252
1843.21	260
1851.48	250
1859.74	244
1867.98	238
1876.22	244
1884.45	224
1892.67	246
1900.87	250
1909.07	244
1917.26	236
1925.43	244
1933.6	236
1941.76	234
1949.91	232
1958.05	234
1966.17	254
1974.29	256
1982.4	234
1990.5	226
1998.59	250
2006.67	246
2014.74	228
2022.8	246
2030.85	264
2038.89	226
2046.92	252
2054.94	226
2062.95	256
2070.96	240
2078.95	234
2086.93	234
2094.91	242
2102.87	242
2110.83	236
2118.77	246
2126.71	226
2134.63	240
2142.55	252
2150.46	232
2158.35	228
2166.24	230
2174.12	252
2181.99	242
2189.85	262
2197.7	240
2205.55	248
2213.38	236
2221.2	238
2229.02	238
2236.82	242
2244.62	234
2252.4	234
2260.18	222
2267.95	248
2275.71	224
2283.46	246
2291.2	244
2298.93	242
2306.65	244
2314.37	242
2322.07	242
2329.77	222
2337.45	248
2345.13	220
2352.8	236
2360.46	230
2368.11	240
2375.75	240
2383.38	240
2391.01	244
2398.62	242
2406.23	242
2413.82	240
2421.41	224
2428.99	216
2436.56	238
2444.12	224
2449.79	236