File: Mixture_Classification/Jesse_Dataset_v2/Pure Raman/Polypropylene oxide/633nm/ps-ppo-7jan25-0,0000-map2_Y04_X04.txt
182.393	692
192.79	592
203.174	494
213.542	442
223.897	594
234.238	1228
244.566	886
254.878	434
265.178	296
275.463	278
285.734	396
295.992	614
306.236	496
316.467	338
326.684	382
336.887	404
347.075	336
357.251	344
367.413	314
377.562	324
387.697	226
397.819	242
407.926	274
418.02	336
428.101	224
438.169	170
448.223	176
458.264	174
468.291	224
478.306	400
488.307	438
498.294	230
508.269	250
518.23	310
528.177	376
538.113	812
548.034	438
557.942	522
567.838	2712
577.72	1554
587.589	590
597.446	438
607.289	224
617.119	212
626.936	242
636.741	304
646.533	254
656.313	192
666.078	182
675.831	170
685.571	168
695.299	162
705.014	180
714.716	236
724.406	196
734.082	212
743.746	268
753.398	292
763.037	194
772.664	190
782.278	228
791.879	194
801.467	204
811.044	204
820.608	224
830.16	794
839.699	416
849.226	264
858.741	224
868.243	188
877.731	182
887.209	176
896.674	172
906.128	172
915.569	170
924.997	174
934.414	200
943.818	250
953.211	540
962.59	912
971.958	476
981.314	228
990.659	230
999.99	198
1009.31	204
1018.62	218
1027.91	240
1037.2	280
1046.47	244
1055.73	194
1064.98	188
1074.22	184
1083.44	202
1092.65	214
1101.86	250
1111.05	832
1120.22	362
1129.39	248
1138.54	248
1147.69	220
1156.82	242
1165.94	252
1175.05	262
1184.14	560
1193.23	436
1202.3	480
1211.36	278
1220.41	210
1229.45	344
1238.48	246
1247.5	216
1256.5	218
1265.49	240
1274.48	250
1283.45	358
1292.41	504
1301.36	1612
1310.29	1326
1319.22	544
1328.13	456
1337.04	324
1345.93	354
1354.81	376
1363.68	302
1372.54	544
1381.38	1094
1390.22	396
1399.05	264
1407.86	260
1416.66	322
1425.46	396
1434.24	474
1443.01	488
1451.77	400
1460.52	396
1469.25	362
1477.98	328
1486.7	316
1495.4	280
1504.1	266
1512.78	278
1521.45	290
1530.11	262
1538.76	278
1547.41	294
1556.03	300
1564.65	288
1573.26	346
1581.86	436
1590.45	770
1599.02	1354
1607.59	1264
1616.14	734
1624.69	386
1633.22	308
1641.75	246
1650.26	250
1658.76	228
1667.26	236
1675.74	230
1684.21	232
1692.67	252
1701.12	256
1709.56	248
1717.99	230
1726.41	222
1734.82	210
1743.22	216
1751.61	212
1759.99	210
1768.36	214
1776.71	222
1785.06	210
1793.4	218
1801.73	206
1810.04	202
1818.35	204
1826.65	194
1834.94	200
1843.21	176
1851.48	206
1859.74	188
1867.98	208
1876.22	202
1884.45	198
1892.67	208
1900.87	210
1909.07	200
1917.26	204
1925.43	210
1933.6	214
1941.76	212
1949.91	196
1958.05	212
1966.17	208
1974.29	194
1982.4	216
1990.5	214
1998.59	214
2006.67	220
2014.74	216
2022.8	214
2030.85	196
2038.89	208
2046.92	230
2054.94	208
2062.95	208
2070.96	196
2078.95	206
2086.93	220
2094.91	214
2102.87	218
2110.83	184
2118.77	198
2126.71	204
2134.63	206
2142.55	208
2150.46	190
2158.35	208
2166.24	198
2174.12	208
2181.99	208
2189.85	200
2197.7	186
2205.55	220
2213.38	204
2221.2	208
2229.02	184
2236.82	230
2244.62	204
2252.4	206
2260.18	194
2267.95	208
2275.71	202
2283.46	210
2291.2	216
2298.93	202
2306.65	218
2314.37	212
2322.07	222
2329.77	230
2337.45	224
2345.13	220
2352.8	198
2360.46	212
2368.11	230
2375.75	224
2383.38	206
2391.01	212
2398.62	222
2406.23	218
2413.82	200
2421.41	202
2428.99	210
2436.56	222
2444.12	226
2449.79	212