File: Mixture_Classification/Jesse_Dataset_v2/Pure Raman/Polypropylene oxide/633nm/ps-ppo-7jan25-0,0000-map2_Y06_X05.txt
182.393	692
192.79	574
203.174	504
213.542	454
223.897	580
234.238	1220
244.566	814
254.878	476
265.178	320
275.463	278
285.734	394
295.992	620
306.236	448
316.467	394
326.684	390
336.887	388
347.075	330
357.251	348
367.413	322
377.562	306
387.697	240
397.819	220
407.926	258
418.02	340
428.101	230
438.169	192
448.223	158
458.264	158
468.291	226
478.306	408
488.307	440
498.294	222
508.269	256
518.23	314
528.177	376
538.113	782
548.034	442
557.942	504
567.838	2618
577.72	1536
587.589	584
597.446	456
607.289	248
617.119	214
626.936	258
636.741	318
646.533	242
656.313	198
666.078	166
675.831	148
685.571	160
695.299	166
705.014	156
714.716	252
724.406	192
734.082	204
743.746	266
753.398	266
763.037	182
772.664	172
782.278	224
791.879	180
801.467	182
811.044	212
820.608	248
830.16	740
839.699	394
849.226	260
858.741	220
868.243	188
877.731	186
887.209	166
896.674	188
906.128	172
915.569	160
924.997	176
934.414	184
943.818	226
953.211	512
962.59	884
971.958	454
981.314	244
990.659	228
999.99	200
1009.31	190
1018.62	202
1027.91	256
1037.2	268
1046.47	230
1055.73	206
1064.98	198
1074.22	188
1083.44	194
1092.65	216
1101.86	230
1111.05	826
1120.22	372
1129.39	236
1138.54	238
1147.69	222
1156.82	238
1165.94	250
1175.05	282
1184.14	554
1193.23	444
1202.3	470
1211.36	284
1220.41	228
1229.45	330
1238.48	244
1247.5	224
1256.5	214
1265.49	240
1274.48	278
1283.45	346
1292.41	490
1301.36	1558
1310.29	1294
1319.22	528
1328.13	472
1337.04	346
1345.93	360
1354.81	354
1363.68	302
1372.54	546
1381.38	1040
1390.22	414
1399.05	280
1407.86	298
1416.66	316
1425.46	372
1434.24	468
1443.01	466
1451.77	402
1460.52	366
1469.25	348
1477.98	344
1486.7	324
1495.4	264
1504.1	276
1512.78	278
1521.45	254
1530.11	272
1538.76	288
1547.41	256
1556.03	278
1564.65	306
1573.26	346
1581.86	416
1590.45	754
1599.02	1290
1607.59	1256
1616.14	748
1624.69	404
1633.22	318
1641.75	252
1650.26	250
1658.76	234
1667.26	240
1675.74	222
1684.21	228
1692.67	242
1701.12	248
1709.56	232
1717.99	220
1726.41	206
1734.82	200
1743.22	208
1751.61	196
1759.99	220
1768.36	200
1776.71	226
1785.06	202
1793.4	196
1801.73	214
1810.04	228
1818.35	194
1826.65	204
1834.94	198
1843.21	204
1851.48	222
1859.74	194
1867.98	194
1876.22	208
1884.45	204
1892.67	194
1900.87	214
1909.07	234
1917.26	206
1925.43	218
1933.6	210
1941.76	204
1949.91	206
1958.05	214
1966.17	212
1974.29	214
1982.4	214
1990.5	208
1998.59	222
2006.67	204
2014.74	210
2022.8	222
2030.85	222
2038.89	208
2046.92	212
2054.94	218
2062.95	204
2070.96	208
2078.95	228
2086.93	208
2094.91	202
2102.87	212
2110.83	208
2118.77	190
2126.71	202
2134.63	204
2142.55	196
2150.46	208
2158.35	198
2166.24	216
2174.12	206
2181.99	212
2189.85	194
2197.7	194
2205.55	192
2213.38	198
2221.2	200
2229.02	208
2236.82	220
2244.62	192
2252.4	208
2260.18	208
2267.95	204
2275.71	202
2283.46	212
2291.2	206
2298.93	208
2306.65	224
2314.37	216
2322.07	210
2329.77	210
2337.45	206
2345.13	218
2352.8	218
2360.46	196
2368.11	194
2375.75	204
2383.38	200
2391.01	218
2398.62	214
2406.23	212
2413.82	224
2421.41	206
2428.99	216
2436.56	222
2444.12	196
2449.79	200