File: Mixture_Classification/Jesse_Dataset_v2/Pure Raman/Polypropylene oxide/633nm/ps-ppo-7jan25-0,0000-map2_Y02_X09.txt
182.393	758
192.79	622
203.174	520
213.542	454
223.897	626
234.238	1302
244.566	908
254.878	480
265.178	332
275.463	306
285.734	390
295.992	632
306.236	462
316.467	410
326.684	388
336.887	420
347.075	350
357.251	368
367.413	332
377.562	320
387.697	254
397.819	258
407.926	306
418.02	368
428.101	250
438.169	198
448.223	180
458.264	178
468.291	242
478.306	408
488.307	472
498.294	246
508.269	276
518.23	306
528.177	394
538.113	790
548.034	474
557.942	526
567.838	2780
577.72	1546
587.589	624
597.446	454
607.289	262
617.119	222
626.936	274
636.741	314
646.533	250
656.313	220
666.078	174
675.831	162
685.571	186
695.299	178
705.014	196
714.716	242
724.406	220
734.082	212
743.746	282
753.398	310
763.037	206
772.664	204
782.278	230
791.879	202
801.467	214
811.044	218
820.608	238
830.16	804
839.699	422
849.226	284
858.741	268
868.243	210
877.731	194
887.209	198
896.674	196
906.128	184
915.569	180
924.997	206
934.414	202
943.818	252
953.211	556
962.59	882
971.958	436
981.314	254
990.659	244
999.99	228
1009.31	214
1018.62	228
1027.91	278
1037.2	290
1046.47	246
1055.73	200
1064.98	216
1074.22	208
1083.44	204
1092.65	210
1101.86	254
1111.05	892
1120.22	370
1129.39	280
1138.54	268
1147.69	240
1156.82	260
1165.94	266
1175.05	284
1184.14	572
1193.23	466
1202.3	502
1211.36	320
1220.41	268
1229.45	378
1238.48	248
1247.5	240
1256.5	240
1265.49	256
1274.48	270
1283.45	384
1292.41	516
1301.36	1664
1310.29	1370
1319.22	590
1328.13	458
1337.04	336
1345.93	394
1354.81	396
1363.68	328
1372.54	578
1381.38	1050
1390.22	424
1399.05	286
1407.86	312
1416.66	328
1425.46	426
1434.24	484
1443.01	504
1451.77	414
1460.52	414
1469.25	382
1477.98	396
1486.7	310
1495.4	308
1504.1	282
1512.78	268
1521.45	278
1530.11	284
1538.76	288
1547.41	294
1556.03	298
1564.65	308
1573.26	376
1581.86	462
1590.45	774
1599.02	1408
1607.59	1384
1616.14	744
1624.69	426
1633.22	314
1641.75	280
1650.26	234
1658.76	236
1667.26	248
1675.74	234
1684.21	250
1692.67	264
1701.12	252
1709.56	254
1717.99	224
1726.41	240
1734.82	236
1743.22	226
1751.61	230
1759.99	202
1768.36	212
1776.71	212
1785.06	212
1793.4	236
1801.73	228
1810.04	214
1818.35	220
1826.65	220
1834.94	232
1843.21	220
1851.48	216
1859.74	206
1867.98	210
1876.22	222
1884.45	212
1892.67	228
1900.87	220
1909.07	212
1917.26	216
1925.43	242
1933.6	206
1941.76	232
1949.91	216
1958.05	210
1966.17	234
1974.29	210
1982.4	224
1990.5	214
1998.59	238
2006.67	218
2014.74	218
2022.8	212
2030.85	220
2038.89	214
2046.92	220
2054.94	230
2062.95	226
2070.96	214
2078.95	226
2086.93	228
2094.91	228
2102.87	234
2110.83	216
2118.77	226
2126.71	220
2134.63	218
2142.55	204
2150.46	240
2158.35	198
2166.24	218
2174.12	222
2181.99	214
2189.85	212
2197.7	228
2205.55	226
2213.38	206
2221.2	218
2229.02	230
2236.82	218
2244.62	218
2252.4	216
2260.18	224
2267.95	212
2275.71	212
2283.46	224
2291.2	218
2298.93	212
2306.65	226
2314.37	244
2322.07	234
2329.77	220
2337.45	238
2345.13	246
2352.8	222
2360.46	206
2368.11	192
2375.75	226
2383.38	212
2391.01	234
2398.62	218
2406.23	228
2413.82	236
2421.41	210
2428.99	216
2436.56	218
2444.12	218
2449.79	212