File: Mixture_Classification/Jesse_Dataset_v2/Pure Raman/Polypropylene oxide/633nm/ps-ppo-7jan25-0,0000-map2_Y01_X03.txt
182.393	692
192.79	596
203.174	546
213.542	452
223.897	616
234.238	1288
244.566	906
254.878	482
265.178	314
275.463	312
285.734	386
295.992	638
306.236	472
316.467	390
326.684	370
336.887	378
347.075	360
357.251	368
367.413	316
377.562	308
387.697	246
397.819	232
407.926	296
418.02	338
428.101	242
438.169	202
448.223	174
458.264	178
468.291	248
478.306	414
488.307	470
498.294	228
508.269	268
518.23	336
528.177	366
538.113	770
548.034	462
557.942	512
567.838	2744
577.72	1600
587.589	644
597.446	466
607.289	260
617.119	210
626.936	284
636.741	326
646.533	260
656.313	214
666.078	186
675.831	180
685.571	182
695.299	170
705.014	180
714.716	240
724.406	212
734.082	224
743.746	284
753.398	316
763.037	196
772.664	214
782.278	226
791.879	204
801.467	194
811.044	212
820.608	236
830.16	824
839.699	412
849.226	276
858.741	236
868.243	196
877.731	206
887.209	174
896.674	184
906.128	180
915.569	166
924.997	176
934.414	208
943.818	266
953.211	554
962.59	924
971.958	454
981.314	260
990.659	228
999.99	210
1009.31	222
1018.62	228
1027.91	256
1037.2	298
1046.47	254
1055.73	214
1064.98	192
1074.22	228
1083.44	210
1092.65	234
1101.86	248
1111.05	836
1120.22	378
1129.39	262
1138.54	252
1147.69	246
1156.82	226
1165.94	280
1175.05	278
1184.14	588
1193.23	464
1202.3	458
1211.36	304
1220.41	254
1229.45	344
1238.48	266
1247.5	218
1256.5	234
1265.49	232
1274.48	266
1283.45	374
1292.41	498
1301.36	1586
1310.29	1332
1319.22	542
1328.13	458
1337.04	348
1345.93	376
1354.81	374
1363.68	302
1372.54	552
1381.38	1096
1390.22	408
1399.05	286
1407.86	264
1416.66	354
1425.46	432
1434.24	462
1443.01	494
1451.77	398
1460.52	370
1469.25	358
1477.98	350
1486.7	312
1495.4	274
1504.1	292
1512.78	290
1521.45	282
1530.11	276
1538.76	288
1547.41	290
1556.03	304
1564.65	308
1573.26	358
1581.86	458
1590.45	794
1599.02	1392
1607.59	1322
1616.14	748
1624.69	412
1633.22	300
1641.75	252
1650.26	256
1658.76	252
1667.26	228
1675.74	228
1684.21	228
1692.67	272
1701.12	260
1709.56	240
1717.99	238
1726.41	214
1734.82	204
1743.22	226
1751.61	214
1759.99	232
1768.36	200
1776.71	220
1785.06	208
1793.4	224
1801.73	222
1810.04	208
1818.35	216
1826.65	216
1834.94	230
1843.21	208
1851.48	224
1859.74	210
1867.98	224
1876.22	216
1884.45	218
1892.67	206
1900.87	216
1909.07	216
1917.26	228
1925.43	198
1933.6	204
1941.76	212
1949.91	212
1958.05	204
1966.17	220
1974.29	206
1982.4	228
1990.5	220
1998.59	216
2006.67	220
2014.74	200
2022.8	216
2030.85	200
2038.89	210
2046.92	216
2054.94	210
2062.95	210
2070.96	224
2078.95	208
2086.93	218
2094.91	218
2102.87	202
2110.83	202
2118.77	206
2126.71	216
2134.63	226
2142.55	226
2150.46	194
2158.35	214
2166.24	214
2174.12	196
2181.99	212
2189.85	220
2197.7	208
2205.55	208
2213.38	208
2221.2	198
2229.02	220
2236.82	212
2244.62	210
2252.4	208
2260.18	216
2267.95	218
2275.71	212
2283.46	212
2291.2	216
2298.93	200
2306.65	212
2314.37	226
2322.07	226
2329.77	224
2337.45	228
2345.13	216
2352.8	200
2360.46	218
2368.11	202
2375.75	228
2383.38	214
2391.01	228
2398.62	200
2406.23	222
2413.82	204
2421.41	216
2428.99	212
2436.56	198
2444.12	226
2449.79	212