File: Mixture_Classification/Jesse_Dataset_v2/Pure Raman/Polypropylene oxide/633nm/ps-ppo-7jan25-0,0000-map2_Y04_X05.txt
182.393	680
192.79	566
203.174	490
213.542	450
223.897	598
234.238	1258
244.566	848
254.878	466
265.178	292
275.463	282
285.734	376
295.992	596
306.236	468
316.467	344
326.684	376
336.887	376
347.075	334
357.251	368
367.413	324
377.562	314
387.697	246
397.819	212
407.926	260
418.02	330
428.101	202
438.169	164
448.223	166
458.264	156
468.291	200
478.306	396
488.307	452
498.294	234
508.269	250
518.23	308
528.177	390
538.113	768
548.034	430
557.942	510
567.838	2688
577.72	1522
587.589	560
597.446	430
607.289	224
617.119	200
626.936	264
636.741	318
646.533	242
656.313	198
666.078	166
675.831	164
685.571	160
695.299	148
705.014	168
714.716	234
724.406	190
734.082	196
743.746	252
753.398	274
763.037	188
772.664	192
782.278	188
791.879	188
801.467	186
811.044	196
820.608	212
830.16	814
839.699	380
849.226	268
858.741	220
868.243	182
877.731	176
887.209	170
896.674	164
906.128	186
915.569	160
924.997	158
934.414	198
943.818	242
953.211	508
962.59	866
971.958	430
981.314	210
990.659	224
999.99	204
1009.31	184
1018.62	218
1027.91	226
1037.2	274
1046.47	228
1055.73	212
1064.98	190
1074.22	202
1083.44	178
1092.65	198
1101.86	218
1111.05	804
1120.22	364
1129.39	250
1138.54	238
1147.69	226
1156.82	230
1165.94	236
1175.05	254
1184.14	552
1193.23	434
1202.3	470
1211.36	268
1220.41	256
1229.45	336
1238.48	218
1247.5	210
1256.5	220
1265.49	234
1274.48	272
1283.45	346
1292.41	452
1301.36	1532
1310.29	1304
1319.22	546
1328.13	458
1337.04	334
1345.93	348
1354.81	340
1363.68	288
1372.54	554
1381.38	1034
1390.22	382
1399.05	272
1407.86	258
1416.66	304
1425.46	402
1434.24	486
1443.01	480
1451.77	390
1460.52	368
1469.25	352
1477.98	344
1486.7	292
1495.4	270
1504.1	260
1512.78	258
1521.45	254
1530.11	264
1538.76	256
1547.41	266
1556.03	264
1564.65	276
1573.26	324
1581.86	434
1590.45	734
1599.02	1368
1607.59	1244
1616.14	754
1624.69	404
1633.22	292
1641.75	248
1650.26	222
1658.76	234
1667.26	220
1675.74	210
1684.21	214
1692.67	228
1701.12	234
1709.56	216
1717.99	224
1726.41	222
1734.82	186
1743.22	198
1751.61	208
1759.99	192
1768.36	210
1776.71	204
1785.06	210
1793.4	190
1801.73	200
1810.04	206
1818.35	206
1826.65	202
1834.94	202
1843.21	200
1851.48	208
1859.74	198
1867.98	184
1876.22	202
1884.45	196
1892.67	202
1900.87	192
1909.07	198
1917.26	200
1925.43	206
1933.6	220
1941.76	190
1949.91	194
1958.05	208
1966.17	180
1974.29	202
1982.4	208
1990.5	206
1998.59	196
2006.67	210
2014.74	212
2022.8	186
2030.85	200
2038.89	194
2046.92	202
2054.94	204
2062.95	194
2070.96	192
2078.95	202
2086.93	204
2094.91	208
2102.87	206
2110.83	194
2118.77	214
2126.71	202
2134.63	188
2142.55	198
2150.46	204
2158.35	198
2166.24	198
2174.12	194
2181.99	202
2189.85	212
2197.7	206
2205.55	192
2213.38	190
2221.2	218
2229.02	208
2236.82	210
2244.62	190
2252.4	188
2260.18	200
2267.95	216
2275.71	208
2283.46	206
2291.2	204
2298.93	198
2306.65	200
2314.37	204
2322.07	220
2329.77	202
2337.45	210
2345.13	210
2352.8	216
2360.46	210
2368.11	210
2375.75	206
2383.38	210
2391.01	210
2398.62	216
2406.23	212
2413.82	222
2421.41	198
2428.99	210
2436.56	222
2444.12	216
2449.79	200