File: Mixture_Classification/Jesse_Dataset_v2/Pure Raman/Polypropylene oxide/633nm/ps-ppo-7jan25-0,0000-map2_Y01_X09.txt
182.393	696
192.79	598
203.174	524
213.542	486
223.897	606
234.238	1342
244.566	890
254.878	508
265.178	320
275.463	298
285.734	390
295.992	640
306.236	466
316.467	382
326.684	362
336.887	394
347.075	364
357.251	348
367.413	324
377.562	312
387.697	260
397.819	240
407.926	286
418.02	336
428.101	238
438.169	194
448.223	182
458.264	194
468.291	246
478.306	414
488.307	462
498.294	228
508.269	286
518.23	308
528.177	402
538.113	806
548.034	456
557.942	552
567.838	2764
577.72	1540
587.589	608
597.446	456
607.289	258
617.119	230
626.936	266
636.741	334
646.533	240
656.313	214
666.078	174
675.831	180
685.571	176
695.299	172
705.014	194
714.716	258
724.406	202
734.082	214
743.746	276
753.398	304
763.037	216
772.664	212
782.278	224
791.879	194
801.467	200
811.044	202
820.608	240
830.16	828
839.699	420
849.226	284
858.741	238
868.243	198
877.731	194
887.209	192
896.674	180
906.128	176
915.569	180
924.997	198
934.414	194
943.818	264
953.211	558
962.59	920
971.958	454
981.314	262
990.659	244
999.99	204
1009.31	210
1018.62	236
1027.91	272
1037.2	278
1046.47	228
1055.73	210
1064.98	198
1074.22	190
1083.44	218
1092.65	212
1101.86	252
1111.05	858
1120.22	378
1129.39	274
1138.54	266
1147.69	242
1156.82	246
1165.94	270
1175.05	298
1184.14	566
1193.23	448
1202.3	508
1211.36	316
1220.41	268
1229.45	358
1238.48	284
1247.5	226
1256.5	236
1265.49	248
1274.48	282
1283.45	394
1292.41	516
1301.36	1604
1310.29	1328
1319.22	558
1328.13	472
1337.04	362
1345.93	386
1354.81	380
1363.68	344
1372.54	540
1381.38	1054
1390.22	410
1399.05	284
1407.86	302
1416.66	360
1425.46	454
1434.24	478
1443.01	496
1451.77	404
1460.52	376
1469.25	370
1477.98	374
1486.7	326
1495.4	286
1504.1	290
1512.78	286
1521.45	282
1530.11	282
1538.76	310
1547.41	272
1556.03	304
1564.65	304
1573.26	326
1581.86	462
1590.45	828
1599.02	1354
1607.59	1308
1616.14	768
1624.69	392
1633.22	308
1641.75	250
1650.26	270
1658.76	250
1667.26	246
1675.74	238
1684.21	276
1692.67	266
1701.12	248
1709.56	258
1717.99	228
1726.41	226
1734.82	228
1743.22	232
1751.61	226
1759.99	224
1768.36	226
1776.71	214
1785.06	216
1793.4	230
1801.73	238
1810.04	216
1818.35	208
1826.65	212
1834.94	220
1843.21	208
1851.48	222
1859.74	216
1867.98	226
1876.22	226
1884.45	210
1892.67	222
1900.87	236
1909.07	234
1917.26	222
1925.43	228
1933.6	234
1941.76	220
1949.91	224
1958.05	218
1966.17	214
1974.29	224
1982.4	230
1990.5	196
1998.59	234
2006.67	226
2014.74	212
2022.8	218
2030.85	208
2038.89	208
2046.92	220
2054.94	216
2062.95	214
2070.96	228
2078.95	226
2086.93	206
2094.91	222
2102.87	210
2110.83	218
2118.77	214
2126.71	236
2134.63	230
2142.55	206
2150.46	218
2158.35	210
2166.24	216
2174.12	230
2181.99	212
2189.85	216
2197.7	214
2205.55	202
2213.38	198
2221.2	208
2229.02	222
2236.82	218
2244.62	188
2252.4	230
2260.18	224
2267.95	220
2275.71	214
2283.46	218
2291.2	218
2298.93	222
2306.65	218
2314.37	220
2322.07	222
2329.77	232
2337.45	222
2345.13	218
2352.8	202
2360.46	218
2368.11	238
2375.75	232
2383.38	220
2391.01	222
2398.62	242
2406.23	206
2413.82	210
2421.41	218
2428.99	216
2436.56	200
2444.12	212
2449.79	222