File: Mixture_Classification/Jesse_Dataset_v2/Pure Raman/Polypropylene oxide/633nm/ps-ppo-7jan25-0,0000-map2_Y03_X05.txt
182.393	726
192.79	612
203.174	520
213.542	440
223.897	582
234.238	1262
244.566	846
254.878	476
265.178	310
275.463	282
285.734	360
295.992	608
306.236	468
316.467	356
326.684	372
336.887	400
347.075	348
357.251	348
367.413	324
377.562	318
387.697	242
397.819	242
407.926	276
418.02	348
428.101	216
438.169	182
448.223	172
458.264	178
468.291	234
478.306	424
488.307	424
498.294	230
508.269	244
518.23	306
528.177	378
538.113	756
548.034	440
557.942	522
567.838	2714
577.72	1560
587.589	576
597.446	446
607.289	242
617.119	210
626.936	260
636.741	326
646.533	236
656.313	192
666.078	174
675.831	162
685.571	166
695.299	178
705.014	184
714.716	256
724.406	212
734.082	222
743.746	268
753.398	308
763.037	210
772.664	212
782.278	228
791.879	196
801.467	184
811.044	218
820.608	240
830.16	774
839.699	404
849.226	264
858.741	230
868.243	218
877.731	188
887.209	174
896.674	184
906.128	184
915.569	186
924.997	202
934.414	190
943.818	242
953.211	536
962.59	866
971.958	444
981.314	230
990.659	220
999.99	198
1009.31	208
1018.62	210
1027.91	236
1037.2	286
1046.47	240
1055.73	226
1064.98	212
1074.22	198
1083.44	196
1092.65	224
1101.86	250
1111.05	860
1120.22	372
1129.39	246
1138.54	264
1147.69	224
1156.82	252
1165.94	266
1175.05	274
1184.14	554
1193.23	440
1202.3	480
1211.36	308
1220.41	264
1229.45	338
1238.48	236
1247.5	224
1256.5	226
1265.49	226
1274.48	260
1283.45	350
1292.41	510
1301.36	1650
1310.29	1352
1319.22	538
1328.13	446
1337.04	338
1345.93	384
1354.81	380
1363.68	296
1372.54	554
1381.38	1042
1390.22	398
1399.05	274
1407.86	286
1416.66	326
1425.46	422
1434.24	474
1443.01	532
1451.77	416
1460.52	374
1469.25	360
1477.98	360
1486.7	308
1495.4	294
1504.1	274
1512.78	268
1521.45	266
1530.11	276
1538.76	254
1547.41	280
1556.03	296
1564.65	294
1573.26	366
1581.86	458
1590.45	778
1599.02	1384
1607.59	1244
1616.14	752
1624.69	398
1633.22	314
1641.75	262
1650.26	248
1658.76	244
1667.26	224
1675.74	234
1684.21	226
1692.67	262
1701.12	236
1709.56	244
1717.99	230
1726.41	220
1734.82	228
1743.22	232
1751.61	222
1759.99	200
1768.36	206
1776.71	206
1785.06	212
1793.4	198
1801.73	208
1810.04	212
1818.35	224
1826.65	220
1834.94	224
1843.21	214
1851.48	200
1859.74	210
1867.98	206
1876.22	216
1884.45	206
1892.67	214
1900.87	210
1909.07	224
1917.26	204
1925.43	210
1933.6	200
1941.76	208
1949.91	226
1958.05	224
1966.17	214
1974.29	216
1982.4	216
1990.5	216
1998.59	204
2006.67	222
2014.74	212
2022.8	220
2030.85	230
2038.89	196
2046.92	214
2054.94	206
2062.95	212
2070.96	196
2078.95	206
2086.93	204
2094.91	196
2102.87	222
2110.83	210
2118.77	218
2126.71	214
2134.63	212
2142.55	214
2150.46	220
2158.35	210
2166.24	212
2174.12	216
2181.99	204
2189.85	210
2197.7	206
2205.55	226
2213.38	200
2221.2	204
2229.02	218
2236.82	202
2244.62	216
2252.4	222
2260.18	208
2267.95	210
2275.71	208
2283.46	218
2291.2	238
2298.93	220
2306.65	198
2314.37	204
2322.07	196
2329.77	208
2337.45	236
2345.13	210
2352.8	212
2360.46	222
2368.11	210
2375.75	200
2383.38	212
2391.01	210
2398.62	228
2406.23	230
2413.82	234
2421.41	230
2428.99	204
2436.56	212
2444.12	206
2449.79	220