File: Mixture_Classification/Jesse_Dataset_v2/Pure Raman/Polypropylene oxide/633nm/ps-ppo-7jan25-0,0000-map2_Y10_X02.txt
182.393	690
192.79	578
203.174	466
213.542	432
223.897	590
234.238	1226
244.566	838
254.878	470
265.178	296
275.463	282
285.734	380
295.992	630
306.236	414
316.467	364
326.684	346
336.887	368
347.075	312
357.251	354
367.413	320
377.562	328
387.697	226
397.819	214
407.926	268
418.02	342
428.101	210
438.169	174
448.223	154
458.264	180
468.291	226
478.306	388
488.307	426
498.294	222
508.269	242
518.23	294
528.177	376
538.113	766
548.034	454
557.942	518
567.838	2610
577.72	1594
587.589	588
597.446	436
607.289	226
617.119	212
626.936	268
636.741	308
646.533	254
656.313	194
666.078	162
675.831	146
685.571	152
695.299	170
705.014	168
714.716	226
724.406	196
734.082	198
743.746	284
753.398	298
763.037	196
772.664	184
782.278	186
791.879	188
801.467	188
811.044	212
820.608	214
830.16	734
839.699	370
849.226	266
858.741	240
868.243	206
877.731	174
887.209	178
896.674	174
906.128	178
915.569	174
924.997	188
934.414	198
943.818	252
953.211	514
962.59	826
971.958	440
981.314	232
990.659	226
999.99	210
1009.31	212
1018.62	226
1027.91	262
1037.2	280
1046.47	234
1055.73	206
1064.98	206
1074.22	198
1083.44	206
1092.65	206
1101.86	248
1111.05	800
1120.22	374
1129.39	250
1138.54	242
1147.69	232
1156.82	246
1165.94	258
1175.05	266
1184.14	548
1193.23	456
1202.3	462
1211.36	318
1220.41	244
1229.45	362
1238.48	264
1247.5	228
1256.5	216
1265.49	268
1274.48	262
1283.45	336
1292.41	502
1301.36	1538
1310.29	1288
1319.22	528
1328.13	474
1337.04	350
1345.93	342
1354.81	366
1363.68	284
1372.54	520
1381.38	988
1390.22	400
1399.05	270
1407.86	272
1416.66	314
1425.46	404
1434.24	432
1443.01	506
1451.77	396
1460.52	382
1469.25	366
1477.98	372
1486.7	312
1495.4	296
1504.1	272
1512.78	280
1521.45	276
1530.11	256
1538.76	284
1547.41	288
1556.03	296
1564.65	310
1573.26	334
1581.86	452
1590.45	736
1599.02	1346
1607.59	1236
1616.14	730
1624.69	392
1633.22	304
1641.75	264
1650.26	254
1658.76	242
1667.26	230
1675.74	226
1684.21	250
1692.67	262
1701.12	236
1709.56	228
1717.99	254
1726.41	218
1734.82	236
1743.22	242
1751.61	216
1759.99	222
1768.36	214
1776.71	220
1785.06	208
1793.4	240
1801.73	224
1810.04	222
1818.35	204
1826.65	210
1834.94	200
1843.21	196
1851.48	202
1859.74	222
1867.98	206
1876.22	206
1884.45	218
1892.67	214
1900.87	212
1909.07	208
1917.26	218
1925.43	210
1933.6	234
1941.76	222
1949.91	210
1958.05	198
1966.17	220
1974.29	198
1982.4	202
1990.5	206
1998.59	216
2006.67	184
2014.74	206
2022.8	198
2030.85	222
2038.89	218
2046.92	212
2054.94	216
2062.95	198
2070.96	200
2078.95	228
2086.93	196
2094.91	204
2102.87	198
2110.83	228
2118.77	214
2126.71	198
2134.63	226
2142.55	214
2150.46	200
2158.35	216
2166.24	224
2174.12	208
2181.99	224
2189.85	210
2197.7	212
2205.55	192
2213.38	184
2221.2	200
2229.02	224
2236.82	206
2244.62	208
2252.4	204
2260.18	228
2267.95	212
2275.71	210
2283.46	206
2291.2	210
2298.93	198
2306.65	214
2314.37	216
2322.07	216
2329.77	218
2337.45	204
2345.13	216
2352.8	212
2360.46	198
2368.11	212
2375.75	216
2383.38	220
2391.01	222
2398.62	216
2406.23	238
2413.82	214
2421.41	218
2428.99	214
2436.56	214
2444.12	220
2449.79	204