File: Mixture_Classification/Jesse_Dataset_v2/Pure Raman/Polypropylene oxide/633nm/ps-ppo-7jan25-0,0000-map2_Y09_X03.txt
182.393	680
192.79	590
203.174	512
213.542	446
223.897	568
234.238	1212
244.566	854
254.878	466
265.178	306
275.463	272
285.734	366
295.992	606
306.236	448
316.467	376
326.684	354
336.887	394
347.075	336
357.251	376
367.413	340
377.562	306
387.697	234
397.819	214
407.926	274
418.02	334
428.101	228
438.169	186
448.223	174
458.264	158
468.291	218
478.306	380
488.307	444
498.294	230
508.269	252
518.23	310
528.177	382
538.113	780
548.034	460
557.942	460
567.838	2560
577.72	1526
587.589	580
597.446	430
607.289	238
617.119	204
626.936	262
636.741	294
646.533	244
656.313	204
666.078	182
675.831	178
685.571	166
695.299	168
705.014	154
714.716	258
724.406	188
734.082	214
743.746	274
753.398	294
763.037	204
772.664	198
782.278	212
791.879	172
801.467	202
811.044	194
820.608	228
830.16	772
839.699	380
849.226	228
858.741	218
868.243	198
877.731	172
887.209	174
896.674	170
906.128	172
915.569	176
924.997	182
934.414	200
943.818	240
953.211	520
962.59	874
971.958	452
981.314	230
990.659	212
999.99	192
1009.31	220
1018.62	224
1027.91	220
1037.2	274
1046.47	234
1055.73	202
1064.98	196
1074.22	194
1083.44	188
1092.65	196
1101.86	238
1111.05	802
1120.22	362
1129.39	248
1138.54	258
1147.69	214
1156.82	244
1165.94	284
1175.05	266
1184.14	538
1193.23	448
1202.3	468
1211.36	304
1220.41	236
1229.45	342
1238.48	248
1247.5	228
1256.5	236
1265.49	244
1274.48	258
1283.45	348
1292.41	498
1301.36	1518
1310.29	1304
1319.22	538
1328.13	466
1337.04	342
1345.93	378
1354.81	350
1363.68	300
1372.54	526
1381.38	1038
1390.22	366
1399.05	276
1407.86	260
1416.66	292
1425.46	422
1434.24	470
1443.01	508
1451.77	398
1460.52	390
1469.25	342
1477.98	344
1486.7	316
1495.4	272
1504.1	276
1512.78	274
1521.45	260
1530.11	260
1538.76	278
1547.41	290
1556.03	286
1564.65	288
1573.26	320
1581.86	464
1590.45	746
1599.02	1372
1607.59	1270
1616.14	738
1624.69	390
1633.22	302
1641.75	264
1650.26	242
1658.76	234
1667.26	214
1675.74	214
1684.21	220
1692.67	224
1701.12	226
1709.56	248
1717.99	236
1726.41	220
1734.82	210
1743.22	208
1751.61	204
1759.99	214
1768.36	204
1776.71	214
1785.06	198
1793.4	208
1801.73	196
1810.04	200
1818.35	214
1826.65	200
1834.94	208
1843.21	222
1851.48	198
1859.74	202
1867.98	208
1876.22	212
1884.45	202
1892.67	202
1900.87	200
1909.07	200
1917.26	206
1925.43	216
1933.6	216
1941.76	216
1949.91	202
1958.05	216
1966.17	178
1974.29	214
1982.4	214
1990.5	208
1998.59	194
2006.67	208
2014.74	202
2022.8	220
2030.85	208
2038.89	200
2046.92	208
2054.94	200
2062.95	202
2070.96	198
2078.95	216
2086.93	200
2094.91	208
2102.87	190
2110.83	194
2118.77	218
2126.71	192
2134.63	212
2142.55	214
2150.46	214
2158.35	210
2166.24	218
2174.12	218
2181.99	204
2189.85	214
2197.7	204
2205.55	210
2213.38	194
2221.2	208
2229.02	218
2236.82	200
2244.62	200
2252.4	238
2260.18	216
2267.95	222
2275.71	210
2283.46	208
2291.2	206
2298.93	212
2306.65	212
2314.37	214
2322.07	196
2329.77	210
2337.45	210
2345.13	206
2352.8	224
2360.46	192
2368.11	210
2375.75	214
2383.38	218
2391.01	228
2398.62	246
2406.23	194
2413.82	218
2421.41	220
2428.99	208
2436.56	192
2444.12	218
2449.79	194