File: Mixture_Classification/Jesse_Dataset_v2/Pure Raman/Polypropylene oxide/633nm/ps-ppo-7jan25-0,0000-map2_Y05_X10.txt
182.393	708
192.79	640
203.174	558
213.542	474
223.897	612
234.238	1250
244.566	878
254.878	482
265.178	320
275.463	326
285.734	374
295.992	622
306.236	472
316.467	386
326.684	378
336.887	402
347.075	366
357.251	394
367.413	346
377.562	324
387.697	244
397.819	240
407.926	284
418.02	368
428.101	232
438.169	212
448.223	186
458.264	200
468.291	246
478.306	400
488.307	488
498.294	256
508.269	276
518.23	326
528.177	394
538.113	802
548.034	498
557.942	516
567.838	2668
577.72	1564
587.589	632
597.446	454
607.289	272
617.119	238
626.936	302
636.741	334
646.533	262
656.313	214
666.078	192
675.831	198
685.571	184
695.299	170
705.014	196
714.716	254
724.406	226
734.082	240
743.746	284
753.398	316
763.037	212
772.664	224
782.278	222
791.879	204
801.467	220
811.044	212
820.608	264
830.16	784
839.699	434
849.226	274
858.741	252
868.243	214
877.731	220
887.209	198
896.674	204
906.128	198
915.569	200
924.997	206
934.414	228
943.818	276
953.211	558
962.59	842
971.958	450
981.314	256
990.659	258
999.99	216
1009.31	202
1018.62	244
1027.91	284
1037.2	270
1046.47	252
1055.73	228
1064.98	206
1074.22	212
1083.44	230
1092.65	222
1101.86	282
1111.05	828
1120.22	386
1129.39	266
1138.54	280
1147.69	244
1156.82	254
1165.94	294
1175.05	312
1184.14	574
1193.23	458
1202.3	502
1211.36	322
1220.41	280
1229.45	366
1238.48	278
1247.5	258
1256.5	232
1265.49	282
1274.48	296
1283.45	386
1292.41	530
1301.36	1566
1310.29	1358
1319.22	562
1328.13	480
1337.04	348
1345.93	406
1354.81	382
1363.68	322
1372.54	550
1381.38	1038
1390.22	424
1399.05	308
1407.86	318
1416.66	320
1425.46	428
1434.24	494
1443.01	542
1451.77	410
1460.52	396
1469.25	404
1477.98	372
1486.7	358
1495.4	298
1504.1	316
1512.78	286
1521.45	290
1530.11	288
1538.76	272
1547.41	314
1556.03	314
1564.65	316
1573.26	382
1581.86	482
1590.45	822
1599.02	1380
1607.59	1322
1616.14	760
1624.69	422
1633.22	312
1641.75	294
1650.26	282
1658.76	260
1667.26	256
1675.74	250
1684.21	242
1692.67	274
1701.12	264
1709.56	256
1717.99	264
1726.41	248
1734.82	222
1743.22	232
1751.61	240
1759.99	230
1768.36	254
1776.71	214
1785.06	242
1793.4	236
1801.73	218
1810.04	230
1818.35	228
1826.65	224
1834.94	222
1843.21	218
1851.48	218
1859.74	230
1867.98	220
1876.22	224
1884.45	238
1892.67	226
1900.87	222
1909.07	238
1917.26	238
1925.43	222
1933.6	250
1941.76	226
1949.91	216
1958.05	236
1966.17	214
1974.29	224
1982.4	242
1990.5	236
1998.59	210
2006.67	222
2014.74	224
2022.8	234
2030.85	224
2038.89	244
2046.92	224
2054.94	236
2062.95	228
2070.96	246
2078.95	230
2086.93	222
2094.91	232
2102.87	236
2110.83	216
2118.77	240
2126.71	240
2134.63	230
2142.55	228
2150.46	246
2158.35	214
2166.24	226
2174.12	224
2181.99	222
2189.85	234
2197.7	218
2205.55	234
2213.38	212
2221.2	226
2229.02	218
2236.82	194
2244.62	234
2252.4	226
2260.18	224
2267.95	210
2275.71	216
2283.46	224
2291.2	232
2298.93	224
2306.65	202
2314.37	234
2322.07	236
2329.77	248
2337.45	230
2345.13	222
2352.8	222
2360.46	242
2368.11	220
2375.75	246
2383.38	232
2391.01	236
2398.62	246
2406.23	234
2413.82	230
2421.41	206
2428.99	238
2436.56	220
2444.12	222
2449.79	224