File: Mixture_Classification/Jesse_Dataset_v2/Pure Raman/Polypropylene oxide/633nm/ps-ppo-7jan25-0,0000-map2_Y03_X00.txt
182.393	726
192.79	630
203.174	564
213.542	482
223.897	636
234.238	1334
244.566	904
254.878	524
265.178	350
275.463	324
285.734	414
295.992	676
306.236	494
316.467	406
326.684	414
336.887	444
347.075	376
357.251	404
367.413	386
377.562	350
387.697	290
397.819	278
407.926	320
418.02	382
428.101	260
438.169	216
448.223	208
458.264	206
468.291	280
478.306	430
488.307	498
498.294	272
508.269	302
518.23	360
528.177	430
538.113	802
548.034	500
557.942	550
567.838	2778
577.72	1590
587.589	650
597.446	468
607.289	280
617.119	266
626.936	314
636.741	352
646.533	292
656.313	258
666.078	200
675.831	192
685.571	210
695.299	200
705.014	224
714.716	284
724.406	242
734.082	262
743.746	306
753.398	326
763.037	268
772.664	250
782.278	240
791.879	238
801.467	236
811.044	246
820.608	292
830.16	848
839.699	442
849.226	302
858.741	268
868.243	228
877.731	232
887.209	220
896.674	216
906.128	222
915.569	214
924.997	216
934.414	234
943.818	282
953.211	594
962.59	968
971.958	464
981.314	278
990.659	256
999.99	250
1009.31	236
1018.62	262
1027.91	310
1037.2	320
1046.47	266
1055.73	244
1064.98	252
1074.22	230
1083.44	230
1092.65	240
1101.86	296
1111.05	904
1120.22	424
1129.39	298
1138.54	290
1147.69	248
1156.82	302
1165.94	300
1175.05	326
1184.14	596
1193.23	532
1202.3	508
1211.36	348
1220.41	288
1229.45	376
1238.48	282
1247.5	258
1256.5	276
1265.49	286
1274.48	300
1283.45	432
1292.41	574
1301.36	1652
1310.29	1356
1319.22	574
1328.13	510
1337.04	384
1345.93	420
1354.81	406
1363.68	354
1372.54	608
1381.38	1096
1390.22	430
1399.05	310
1407.86	324
1416.66	360
1425.46	446
1434.24	512
1443.01	550
1451.77	432
1460.52	436
1469.25	414
1477.98	408
1486.7	372
1495.4	332
1504.1	328
1512.78	304
1521.45	318
1530.11	306
1538.76	332
1547.41	334
1556.03	324
1564.65	340
1573.26	368
1581.86	486
1590.45	818
1599.02	1396
1607.59	1336
1616.14	772
1624.69	462
1633.22	354
1641.75	320
1650.26	278
1658.76	278
1667.26	266
1675.74	254
1684.21	278
1692.67	274
1701.12	282
1709.56	264
1717.99	262
1726.41	268
1734.82	244
1743.22	256
1751.61	280
1759.99	240
1768.36	266
1776.71	268
1785.06	250
1793.4	268
1801.73	268
1810.04	256
1818.35	260
1826.65	258
1834.94	246
1843.21	240
1851.48	252
1859.74	242
1867.98	222
1876.22	244
1884.45	254
1892.67	246
1900.87	242
1909.07	244
1917.26	254
1925.43	266
1933.6	254
1941.76	242
1949.91	240
1958.05	244
1966.17	250
1974.29	246
1982.4	248
1990.5	244
1998.59	254
2006.67	242
2014.74	274
2022.8	264
2030.85	252
2038.89	238
2046.92	268
2054.94	250
2062.95	260
2070.96	254
2078.95	248
2086.93	248
2094.91	250
2102.87	244
2110.83	244
2118.77	254
2126.71	218
2134.63	248
2142.55	240
2150.46	252
2158.35	234
2166.24	236
2174.12	232
2181.99	244
2189.85	232
2197.7	228
2205.55	244
2213.38	230
2221.2	230
2229.02	256
2236.82	230
2244.62	228
2252.4	228
2260.18	252
2267.95	252
2275.71	230
2283.46	242
2291.2	244
2298.93	264
2306.65	256
2314.37	256
2322.07	248
2329.77	228
2337.45	260
2345.13	226
2352.8	222
2360.46	234
2368.11	242
2375.75	242
2383.38	240
2391.01	248
2398.62	248
2406.23	246
2413.82	240
2421.41	262
2428.99	244
2436.56	264
2444.12	242
2449.79	234