File: Mixture_Classification/Jesse_Dataset_v2/Pure Raman/Polypropylene oxide/633nm/ps-ppo-7jan25-0,0000-map2_Y09_X04.txt
182.393	654
192.79	598
203.174	522
213.542	438
223.897	550
234.238	1234
244.566	844
254.878	482
265.178	322
275.463	270
285.734	358
295.992	580
306.236	452
316.467	346
326.684	374
336.887	386
347.075	332
357.251	356
367.413	322
377.562	294
387.697	244
397.819	232
407.926	256
418.02	342
428.101	224
438.169	178
448.223	168
458.264	180
468.291	214
478.306	376
488.307	448
498.294	232
508.269	236
518.23	310
528.177	392
538.113	706
548.034	440
557.942	504
567.838	2528
577.72	1592
587.589	580
597.446	422
607.289	234
617.119	218
626.936	260
636.741	314
646.533	236
656.313	220
666.078	158
675.831	152
685.571	170
695.299	154
705.014	168
714.716	228
724.406	220
734.082	208
743.746	264
753.398	284
763.037	206
772.664	180
782.278	194
791.879	202
801.467	186
811.044	194
820.608	220
830.16	754
839.699	410
849.226	242
858.741	248
868.243	194
877.731	184
887.209	180
896.674	170
906.128	172
915.569	162
924.997	172
934.414	200
943.818	240
953.211	516
962.59	874
971.958	442
981.314	238
990.659	232
999.99	200
1009.31	188
1018.62	192
1027.91	268
1037.2	284
1046.47	220
1055.73	196
1064.98	194
1074.22	218
1083.44	204
1092.65	204
1101.86	244
1111.05	822
1120.22	380
1129.39	268
1138.54	258
1147.69	216
1156.82	238
1165.94	270
1175.05	280
1184.14	552
1193.23	478
1202.3	462
1211.36	302
1220.41	234
1229.45	344
1238.48	232
1247.5	216
1256.5	222
1265.49	240
1274.48	282
1283.45	344
1292.41	482
1301.36	1538
1310.29	1344
1319.22	552
1328.13	428
1337.04	340
1345.93	364
1354.81	358
1363.68	312
1372.54	510
1381.38	1026
1390.22	390
1399.05	256
1407.86	272
1416.66	318
1425.46	392
1434.24	422
1443.01	478
1451.77	394
1460.52	378
1469.25	360
1477.98	362
1486.7	298
1495.4	270
1504.1	272
1512.78	278
1521.45	254
1530.11	274
1538.76	268
1547.41	272
1556.03	294
1564.65	290
1573.26	338
1581.86	464
1590.45	718
1599.02	1378
1607.59	1264
1616.14	762
1624.69	404
1633.22	284
1641.75	244
1650.26	254
1658.76	230
1667.26	234
1675.74	222
1684.21	222
1692.67	230
1701.12	220
1709.56	242
1717.99	210
1726.41	216
1734.82	210
1743.22	208
1751.61	206
1759.99	208
1768.36	196
1776.71	218
1785.06	210
1793.4	218
1801.73	204
1810.04	204
1818.35	202
1826.65	202
1834.94	216
1843.21	220
1851.48	214
1859.74	202
1867.98	204
1876.22	206
1884.45	218
1892.67	224
1900.87	204
1909.07	212
1917.26	196
1925.43	198
1933.6	206
1941.76	200
1949.91	212
1958.05	218
1966.17	186
1974.29	220
1982.4	200
1990.5	200
1998.59	214
2006.67	196
2014.74	206
2022.8	216
2030.85	202
2038.89	204
2046.92	212
2054.94	202
2062.95	224
2070.96	212
2078.95	218
2086.93	196
2094.91	200
2102.87	220
2110.83	204
2118.77	212
2126.71	216
2134.63	216
2142.55	208
2150.46	208
2158.35	198
2166.24	202
2174.12	210
2181.99	220
2189.85	212
2197.7	212
2205.55	196
2213.38	202
2221.2	206
2229.02	208
2236.82	210
2244.62	216
2252.4	216
2260.18	220
2267.95	214
2275.71	212
2283.46	202
2291.2	202
2298.93	196
2306.65	208
2314.37	226
2322.07	224
2329.77	198
2337.45	218
2345.13	222
2352.8	216
2360.46	204
2368.11	224
2375.75	196
2383.38	214
2391.01	204
2398.62	216
2406.23	222
2413.82	198
2421.41	230
2428.99	214
2436.56	202
2444.12	214
2449.79	214