File: Mixture_Classification/Jesse_Dataset_v2/Pure Raman/Polypropylene oxide/633nm/ps-ppo-7jan25-0,0000-map2_Y01_X01.txt
182.393	714
192.79	642
203.174	522
213.542	470
223.897	628
234.238	1340
244.566	912
254.878	464
265.178	324
275.463	296
285.734	408
295.992	676
306.236	514
316.467	384
326.684	396
336.887	418
347.075	378
357.251	380
367.413	342
377.562	312
387.697	262
397.819	264
407.926	308
418.02	366
428.101	254
438.169	182
448.223	186
458.264	198
468.291	272
478.306	424
488.307	464
498.294	260
508.269	288
518.23	350
528.177	402
538.113	836
548.034	486
557.942	552
567.838	2798
577.72	1596
587.589	658
597.446	480
607.289	284
617.119	228
626.936	304
636.741	346
646.533	284
656.313	224
666.078	216
675.831	172
685.571	200
695.299	182
705.014	198
714.716	268
724.406	222
734.082	236
743.746	304
753.398	320
763.037	228
772.664	228
782.278	240
791.879	218
801.467	222
811.044	216
820.608	270
830.16	850
839.699	442
849.226	292
858.741	268
868.243	216
877.731	202
887.209	200
896.674	206
906.128	202
915.569	202
924.997	202
934.414	236
943.818	260
953.211	592
962.59	892
971.958	460
981.314	286
990.659	244
999.99	236
1009.31	236
1018.62	256
1027.91	312
1037.2	308
1046.47	268
1055.73	232
1064.98	220
1074.22	226
1083.44	226
1092.65	228
1101.86	282
1111.05	860
1120.22	402
1129.39	286
1138.54	276
1147.69	278
1156.82	266
1165.94	316
1175.05	296
1184.14	612
1193.23	492
1202.3	500
1211.36	326
1220.41	256
1229.45	372
1238.48	278
1247.5	248
1256.5	240
1265.49	280
1274.48	302
1283.45	394
1292.41	482
1301.36	1646
1310.29	1374
1319.22	578
1328.13	500
1337.04	370
1345.93	380
1354.81	376
1363.68	316
1372.54	572
1381.38	1078
1390.22	424
1399.05	302
1407.86	290
1416.66	360
1425.46	432
1434.24	464
1443.01	564
1451.77	450
1460.52	402
1469.25	394
1477.98	364
1486.7	328
1495.4	308
1504.1	290
1512.78	306
1521.45	306
1530.11	312
1538.76	308
1547.41	314
1556.03	310
1564.65	324
1573.26	344
1581.86	516
1590.45	792
1599.02	1418
1607.59	1302
1616.14	760
1624.69	418
1633.22	308
1641.75	294
1650.26	266
1658.76	262
1667.26	248
1675.74	242
1684.21	240
1692.67	268
1701.12	266
1709.56	252
1717.99	236
1726.41	232
1734.82	224
1743.22	246
1751.61	228
1759.99	222
1768.36	232
1776.71	218
1785.06	220
1793.4	228
1801.73	212
1810.04	210
1818.35	208
1826.65	230
1834.94	244
1843.21	218
1851.48	240
1859.74	240
1867.98	212
1876.22	248
1884.45	242
1892.67	230
1900.87	222
1909.07	240
1917.26	250
1925.43	232
1933.6	222
1941.76	212
1949.91	214
1958.05	220
1966.17	232
1974.29	230
1982.4	230
1990.5	230
1998.59	246
2006.67	224
2014.74	212
2022.8	216
2030.85	212
2038.89	232
2046.92	222
2054.94	220
2062.95	228
2070.96	230
2078.95	254
2086.93	220
2094.91	240
2102.87	210
2110.83	232
2118.77	226
2126.71	224
2134.63	232
2142.55	222
2150.46	216
2158.35	226
2166.24	226
2174.12	222
2181.99	210
2189.85	220
2197.7	220
2205.55	214
2213.38	210
2221.2	218
2229.02	210
2236.82	216
2244.62	230
2252.4	218
2260.18	224
2267.95	242
2275.71	224
2283.46	232
2291.2	234
2298.93	216
2306.65	210
2314.37	228
2322.07	212
2329.77	226
2337.45	238
2345.13	214
2352.8	236
2360.46	214
2368.11	204
2375.75	232
2383.38	218
2391.01	250
2398.62	234
2406.23	230
2413.82	222
2421.41	228
2428.99	220
2436.56	208
2444.12	228
2449.79	208