File: Mixture_Classification/Jesse_Dataset_v2/Pure Raman/Polypropylene oxide/633nm/ps-ppo-7jan25-0,0000-map2_Y00_X02.txt
182.393	756
192.79	662
203.174	560
213.542	500
223.897	670
234.238	1342
244.566	922
254.878	518
265.178	358
275.463	306
285.734	420
295.992	692
306.236	532
316.467	404
326.684	418
336.887	434
347.075	380
357.251	380
367.413	368
377.562	364
387.697	274
397.819	290
407.926	318
418.02	400
428.101	268
438.169	230
448.223	218
458.264	216
468.291	278
478.306	446
488.307	500
498.294	266
508.269	296
518.23	330
528.177	458
538.113	836
548.034	514
557.942	544
567.838	2816
577.72	1598
587.589	650
597.446	486
607.289	284
617.119	258
626.936	300
636.741	366
646.533	304
656.313	242
666.078	202
675.831	206
685.571	202
695.299	220
705.014	220
714.716	282
724.406	258
734.082	246
743.746	306
753.398	350
763.037	244
772.664	240
782.278	254
791.879	224
801.467	234
811.044	242
820.608	266
830.16	854
839.699	456
849.226	320
858.741	284
868.243	266
877.731	224
887.209	222
896.674	222
906.128	222
915.569	218
924.997	230
934.414	258
943.818	274
953.211	592
962.59	926
971.958	502
981.314	278
990.659	278
999.99	258
1009.31	240
1018.62	290
1027.91	298
1037.2	330
1046.47	290
1055.73	258
1064.98	224
1074.22	232
1083.44	242
1092.65	258
1101.86	302
1111.05	888
1120.22	410
1129.39	300
1138.54	290
1147.69	270
1156.82	312
1165.94	328
1175.05	320
1184.14	638
1193.23	518
1202.3	556
1211.36	352
1220.41	282
1229.45	396
1238.48	304
1247.5	270
1256.5	268
1265.49	292
1274.48	312
1283.45	416
1292.41	552
1301.36	1652
1310.29	1386
1319.22	624
1328.13	524
1337.04	388
1345.93	416
1354.81	426
1363.68	372
1372.54	592
1381.38	1100
1390.22	440
1399.05	306
1407.86	312
1416.66	360
1425.46	474
1434.24	502
1443.01	542
1451.77	434
1460.52	418
1469.25	418
1477.98	412
1486.7	348
1495.4	340
1504.1	320
1512.78	320
1521.45	340
1530.11	324
1538.76	330
1547.41	336
1556.03	312
1564.65	356
1573.26	384
1581.86	510
1590.45	832
1599.02	1450
1607.59	1364
1616.14	776
1624.69	458
1633.22	338
1641.75	312
1650.26	286
1658.76	298
1667.26	270
1675.74	280
1684.21	286
1692.67	286
1701.12	272
1709.56	250
1717.99	260
1726.41	270
1734.82	246
1743.22	256
1751.61	272
1759.99	254
1768.36	234
1776.71	258
1785.06	250
1793.4	258
1801.73	278
1810.04	254
1818.35	258
1826.65	268
1834.94	248
1843.21	252
1851.48	250
1859.74	244
1867.98	248
1876.22	252
1884.45	250
1892.67	268
1900.87	264
1909.07	238
1917.26	258
1925.43	260
1933.6	256
1941.76	258
1949.91	254
1958.05	256
1966.17	252
1974.29	238
1982.4	236
1990.5	244
1998.59	270
2006.67	250
2014.74	254
2022.8	248
2030.85	242
2038.89	226
2046.92	228
2054.94	240
2062.95	258
2070.96	238
2078.95	246
2086.93	240
2094.91	236
2102.87	260
2110.83	236
2118.77	230
2126.71	254
2134.63	232
2142.55	226
2150.46	244
2158.35	236
2166.24	250
2174.12	246
2181.99	240
2189.85	246
2197.7	232
2205.55	224
2213.38	226
2221.2	232
2229.02	278
2236.82	230
2244.62	230
2252.4	240
2260.18	236
2267.95	244
2275.71	256
2283.46	256
2291.2	262
2298.93	250
2306.65	226
2314.37	244
2322.07	246
2329.77	244
2337.45	254
2345.13	244
2352.8	228
2360.46	218
2368.11	236
2375.75	246
2383.38	246
2391.01	238
2398.62	252
2406.23	256
2413.82	236
2421.41	248
2428.99	228
2436.56	238
2444.12	234
2449.79	226