File: Mixture_Classification/Jesse_Dataset_v2/Pure Raman/Polypropylene oxide/633nm/ps-ppo-7jan25-0,0000-map2_Y03_X01.txt
182.393	714
192.79	600
203.174	508
213.542	472
223.897	614
234.238	1340
244.566	910
254.878	472
265.178	336
275.463	304
285.734	420
295.992	642
306.236	462
316.467	392
326.684	380
336.887	416
347.075	352
357.251	358
367.413	352
377.562	330
387.697	256
397.819	238
407.926	294
418.02	364
428.101	236
438.169	214
448.223	172
458.264	188
468.291	238
478.306	406
488.307	458
498.294	254
508.269	282
518.23	328
528.177	392
538.113	778
548.034	448
557.942	526
567.838	2754
577.72	1546
587.589	614
597.446	466
607.289	244
617.119	232
626.936	280
636.741	346
646.533	262
656.313	210
666.078	186
675.831	174
685.571	176
695.299	188
705.014	198
714.716	272
724.406	196
734.082	204
743.746	290
753.398	302
763.037	220
772.664	200
782.278	216
791.879	216
801.467	188
811.044	214
820.608	244
830.16	826
839.699	418
849.226	288
858.741	246
868.243	212
877.731	204
887.209	204
896.674	202
906.128	202
915.569	186
924.997	196
934.414	216
943.818	278
953.211	580
962.59	890
971.958	472
981.314	244
990.659	246
999.99	214
1009.31	218
1018.62	236
1027.91	262
1037.2	298
1046.47	262
1055.73	218
1064.98	214
1074.22	228
1083.44	214
1092.65	220
1101.86	268
1111.05	832
1120.22	414
1129.39	264
1138.54	270
1147.69	226
1156.82	254
1165.94	278
1175.05	304
1184.14	608
1193.23	426
1202.3	486
1211.36	304
1220.41	260
1229.45	346
1238.48	270
1247.5	244
1256.5	264
1265.49	274
1274.48	276
1283.45	354
1292.41	502
1301.36	1592
1310.29	1368
1319.22	600
1328.13	502
1337.04	332
1345.93	384
1354.81	396
1363.68	318
1372.54	546
1381.38	1046
1390.22	426
1399.05	302
1407.86	286
1416.66	374
1425.46	432
1434.24	478
1443.01	504
1451.77	388
1460.52	404
1469.25	362
1477.98	364
1486.7	326
1495.4	310
1504.1	296
1512.78	302
1521.45	292
1530.11	306
1538.76	306
1547.41	308
1556.03	310
1564.65	330
1573.26	350
1581.86	474
1590.45	842
1599.02	1414
1607.59	1288
1616.14	782
1624.69	414
1633.22	330
1641.75	272
1650.26	262
1658.76	258
1667.26	244
1675.74	238
1684.21	260
1692.67	274
1701.12	258
1709.56	258
1717.99	236
1726.41	222
1734.82	230
1743.22	228
1751.61	224
1759.99	230
1768.36	234
1776.71	230
1785.06	232
1793.4	230
1801.73	214
1810.04	240
1818.35	226
1826.65	222
1834.94	214
1843.21	224
1851.48	226
1859.74	216
1867.98	218
1876.22	232
1884.45	220
1892.67	230
1900.87	234
1909.07	230
1917.26	210
1925.43	242
1933.6	210
1941.76	244
1949.91	224
1958.05	224
1966.17	184
1974.29	220
1982.4	206
1990.5	230
1998.59	248
2006.67	216
2014.74	234
2022.8	234
2030.85	224
2038.89	226
2046.92	216
2054.94	236
2062.95	218
2070.96	236
2078.95	232
2086.93	222
2094.91	220
2102.87	232
2110.83	210
2118.77	236
2126.71	224
2134.63	224
2142.55	222
2150.46	220
2158.35	220
2166.24	214
2174.12	228
2181.99	226
2189.85	214
2197.7	228
2205.55	198
2213.38	202
2221.2	216
2229.02	220
2236.82	218
2244.62	206
2252.4	224
2260.18	236
2267.95	218
2275.71	238
2283.46	228
2291.2	224
2298.93	218
2306.65	230
2314.37	220
2322.07	230
2329.77	234
2337.45	232
2345.13	240
2352.8	226
2360.46	216
2368.11	224
2375.75	222
2383.38	240
2391.01	244
2398.62	234
2406.23	232
2413.82	242
2421.41	232
2428.99	214
2436.56	204
2444.12	240
2449.79	238