File: Mixture_Classification/Jesse_Dataset_v2/Pure Raman/Polypropylene oxide/633nm/ps-ppo-7jan25-0,0000-map2_Y06_X10.txt
182.393	672
192.79	590
203.174	500
213.542	430
223.897	594
234.238	1204
244.566	832
254.878	478
265.178	310
275.463	292
285.734	414
295.992	642
306.236	446
316.467	352
326.684	384
336.887	420
347.075	350
357.251	366
367.413	326
377.562	328
387.697	252
397.819	238
407.926	294
418.02	362
428.101	228
438.169	206
448.223	186
458.264	202
468.291	240
478.306	412
488.307	470
498.294	266
508.269	276
518.23	324
528.177	406
538.113	764
548.034	474
557.942	476
567.838	2642
577.72	1490
587.589	598
597.446	486
607.289	258
617.119	230
626.936	298
636.741	334
646.533	266
656.313	214
666.078	186
675.831	178
685.571	194
695.299	170
705.014	202
714.716	254
724.406	224
734.082	224
743.746	294
753.398	312
763.037	216
772.664	200
782.278	226
791.879	218
801.467	210
811.044	250
820.608	254
830.16	808
839.699	416
849.226	270
858.741	244
868.243	200
877.731	204
887.209	210
896.674	196
906.128	190
915.569	210
924.997	200
934.414	220
943.818	274
953.211	568
962.59	890
971.958	464
981.314	252
990.659	256
999.99	214
1009.31	222
1018.62	238
1027.91	294
1037.2	288
1046.47	254
1055.73	218
1064.98	220
1074.22	214
1083.44	238
1092.65	232
1101.86	248
1111.05	834
1120.22	396
1129.39	282
1138.54	254
1147.69	238
1156.82	244
1165.94	278
1175.05	290
1184.14	546
1193.23	468
1202.3	476
1211.36	314
1220.41	270
1229.45	366
1238.48	274
1247.5	222
1256.5	244
1265.49	280
1274.48	290
1283.45	354
1292.41	520
1301.36	1546
1310.29	1332
1319.22	566
1328.13	472
1337.04	352
1345.93	408
1354.81	364
1363.68	318
1372.54	530
1381.38	1026
1390.22	416
1399.05	268
1407.86	304
1416.66	336
1425.46	436
1434.24	494
1443.01	486
1451.77	424
1460.52	396
1469.25	380
1477.98	356
1486.7	336
1495.4	302
1504.1	298
1512.78	290
1521.45	282
1530.11	290
1538.76	308
1547.41	318
1556.03	312
1564.65	312
1573.26	360
1581.86	492
1590.45	814
1599.02	1380
1607.59	1292
1616.14	734
1624.69	416
1633.22	322
1641.75	272
1650.26	262
1658.76	250
1667.26	254
1675.74	228
1684.21	262
1692.67	262
1701.12	268
1709.56	276
1717.99	226
1726.41	236
1734.82	260
1743.22	208
1751.61	238
1759.99	248
1768.36	244
1776.71	236
1785.06	254
1793.4	234
1801.73	230
1810.04	222
1818.35	226
1826.65	226
1834.94	228
1843.21	250
1851.48	244
1859.74	242
1867.98	228
1876.22	240
1884.45	224
1892.67	234
1900.87	232
1909.07	222
1917.26	230
1925.43	238
1933.6	224
1941.76	248
1949.91	240
1958.05	228
1966.17	244
1974.29	250
1982.4	224
1990.5	244
1998.59	226
2006.67	222
2014.74	232
2022.8	236
2030.85	242
2038.89	230
2046.92	222
2054.94	224
2062.95	230
2070.96	224
2078.95	226
2086.93	230
2094.91	224
2102.87	246
2110.83	232
2118.77	226
2126.71	236
2134.63	244
2142.55	230
2150.46	238
2158.35	216
2166.24	216
2174.12	214
2181.99	232
2189.85	230
2197.7	240
2205.55	232
2213.38	216
2221.2	222
2229.02	238
2236.82	236
2244.62	234
2252.4	230
2260.18	234
2267.95	236
2275.71	236
2283.46	220
2291.2	244
2298.93	234
2306.65	224
2314.37	234
2322.07	250
2329.77	220
2337.45	252
2345.13	222
2352.8	234
2360.46	216
2368.11	220
2375.75	232
2383.38	234
2391.01	228
2398.62	232
2406.23	244
2413.82	232
2421.41	216
2428.99	228
2436.56	226
2444.12	228
2449.79	230