File: Mixture_Classification/Jesse_Dataset_v2/Pure Raman/Polypropylene oxide/633nm/ps-ppo-7jan25-0,0000-map2_Y08_X08.txt
182.393	690
192.79	574
203.174	522
213.542	452
223.897	592
234.238	1242
244.566	888
254.878	468
265.178	306
275.463	292
285.734	386
295.992	616
306.236	460
316.467	368
326.684	376
336.887	404
347.075	342
357.251	368
367.413	330
377.562	310
387.697	254
397.819	242
407.926	274
418.02	344
428.101	252
438.169	194
448.223	194
458.264	188
468.291	230
478.306	396
488.307	452
498.294	240
508.269	252
518.23	310
528.177	394
538.113	742
548.034	462
557.942	490
567.838	2594
577.72	1534
587.589	612
597.446	450
607.289	248
617.119	232
626.936	260
636.741	318
646.533	258
656.313	212
666.078	174
675.831	158
685.571	180
695.299	176
705.014	190
714.716	240
724.406	208
734.082	204
743.746	258
753.398	292
763.037	204
772.664	186
782.278	224
791.879	202
801.467	186
811.044	226
820.608	244
830.16	762
839.699	402
849.226	246
858.741	254
868.243	198
877.731	196
887.209	202
896.674	168
906.128	172
915.569	168
924.997	182
934.414	198
943.818	250
953.211	512
962.59	862
971.958	456
981.314	240
990.659	244
999.99	206
1009.31	218
1018.62	244
1027.91	258
1037.2	292
1046.47	222
1055.73	206
1064.98	222
1074.22	204
1083.44	228
1092.65	208
1101.86	266
1111.05	824
1120.22	386
1129.39	268
1138.54	258
1147.69	230
1156.82	234
1165.94	274
1175.05	262
1184.14	552
1193.23	438
1202.3	484
1211.36	322
1220.41	230
1229.45	338
1238.48	254
1247.5	220
1256.5	234
1265.49	240
1274.48	280
1283.45	356
1292.41	508
1301.36	1530
1310.29	1312
1319.22	544
1328.13	462
1337.04	356
1345.93	360
1354.81	344
1363.68	342
1372.54	532
1381.38	1060
1390.22	390
1399.05	274
1407.86	284
1416.66	332
1425.46	410
1434.24	444
1443.01	482
1451.77	412
1460.52	368
1469.25	370
1477.98	402
1486.7	320
1495.4	314
1504.1	254
1512.78	272
1521.45	290
1530.11	276
1538.76	282
1547.41	262
1556.03	306
1564.65	304
1573.26	358
1581.86	440
1590.45	768
1599.02	1366
1607.59	1316
1616.14	726
1624.69	410
1633.22	278
1641.75	274
1650.26	242
1658.76	240
1667.26	252
1675.74	240
1684.21	236
1692.67	246
1701.12	260
1709.56	246
1717.99	248
1726.41	224
1734.82	224
1743.22	226
1751.61	230
1759.99	232
1768.36	234
1776.71	218
1785.06	228
1793.4	230
1801.73	214
1810.04	228
1818.35	226
1826.65	230
1834.94	218
1843.21	220
1851.48	222
1859.74	222
1867.98	216
1876.22	232
1884.45	212
1892.67	234
1900.87	230
1909.07	226
1917.26	202
1925.43	208
1933.6	198
1941.76	220
1949.91	222
1958.05	208
1966.17	234
1974.29	216
1982.4	224
1990.5	214
1998.59	214
2006.67	204
2014.74	216
2022.8	220
2030.85	204
2038.89	202
2046.92	222
2054.94	222
2062.95	218
2070.96	230
2078.95	210
2086.93	210
2094.91	210
2102.87	216
2110.83	226
2118.77	208
2126.71	204
2134.63	204
2142.55	206
2150.46	204
2158.35	206
2166.24	218
2174.12	220
2181.99	224
2189.85	234
2197.7	212
2205.55	208
2213.38	234
2221.2	232
2229.02	202
2236.82	212
2244.62	222
2252.4	236
2260.18	212
2267.95	216
2275.71	220
2283.46	216
2291.2	212
2298.93	210
2306.65	232
2314.37	228
2322.07	234
2329.77	234
2337.45	222
2345.13	224
2352.8	216
2360.46	210
2368.11	212
2375.75	238
2383.38	238
2391.01	224
2398.62	226
2406.23	220
2413.82	204
2421.41	218
2428.99	216
2436.56	214
2444.12	236
2449.79	236