File: Mixture_Classification/Jesse_Dataset_v2/Pure Raman/Polypropylene oxide/633nm/ps-ppo-7jan25-0,0000-map2_Y05_X06.txt
182.393	634
192.79	544
203.174	466
213.542	400
223.897	546
234.238	1212
244.566	844
254.878	406
265.178	252
275.463	234
285.734	326
295.992	582
306.236	394
316.467	316
326.684	320
336.887	354
347.075	286
357.251	300
367.413	272
377.562	266
387.697	218
397.819	170
407.926	214
418.02	300
428.101	192
438.169	132
448.223	116
458.264	134
468.291	176
478.306	344
488.307	398
498.294	176
508.269	206
518.23	264
528.177	318
538.113	708
548.034	394
557.942	448
567.838	2632
577.72	1464
587.589	554
597.446	382
607.289	176
617.119	174
626.936	220
636.741	262
646.533	184
656.313	140
666.078	114
675.831	120
685.571	114
695.299	114
705.014	124
714.716	178
724.406	154
734.082	158
743.746	210
753.398	234
763.037	138
772.664	142
782.278	164
791.879	144
801.467	132
811.044	152
820.608	192
830.16	730
839.699	330
849.226	206
858.741	178
868.243	140
877.731	130
887.209	128
896.674	124
906.128	134
915.569	118
924.997	126
934.414	136
943.818	196
953.211	460
962.59	840
971.958	402
981.314	180
990.659	168
999.99	142
1009.31	146
1018.62	168
1027.91	200
1037.2	214
1046.47	186
1055.73	154
1064.98	144
1074.22	146
1083.44	138
1092.65	150
1101.86	186
1111.05	750
1120.22	312
1129.39	202
1138.54	188
1147.69	158
1156.82	186
1165.94	216
1175.05	214
1184.14	496
1193.23	362
1202.3	412
1211.36	234
1220.41	178
1229.45	280
1238.48	184
1247.5	168
1256.5	178
1265.49	178
1274.48	198
1283.45	298
1292.41	446
1301.36	1510
1310.29	1294
1319.22	462
1328.13	400
1337.04	308
1345.93	296
1354.81	284
1363.68	232
1372.54	490
1381.38	978
1390.22	348
1399.05	216
1407.86	210
1416.66	264
1425.46	342
1434.24	420
1443.01	428
1451.77	336
1460.52	322
1469.25	296
1477.98	276
1486.7	254
1495.4	214
1504.1	214
1512.78	202
1521.45	204
1530.11	202
1538.76	204
1547.41	218
1556.03	218
1564.65	244
1573.26	278
1581.86	402
1590.45	710
1599.02	1296
1607.59	1196
1616.14	672
1624.69	342
1633.22	244
1641.75	192
1650.26	186
1658.76	184
1667.26	158
1675.74	164
1684.21	170
1692.67	190
1701.12	192
1709.56	184
1717.99	164
1726.41	160
1734.82	158
1743.22	152
1751.61	150
1759.99	158
1768.36	156
1776.71	156
1785.06	152
1793.4	152
1801.73	154
1810.04	156
1818.35	152
1826.65	148
1834.94	146
1843.21	156
1851.48	156
1859.74	152
1867.98	156
1876.22	154
1884.45	164
1892.67	156
1900.87	148
1909.07	142
1917.26	146
1925.43	164
1933.6	156
1941.76	148
1949.91	166
1958.05	148
1966.17	162
1974.29	150
1982.4	154
1990.5	154
1998.59	148
2006.67	150
2014.74	154
2022.8	164
2030.85	162
2038.89	158
2046.92	156
2054.94	162
2062.95	158
2070.96	162
2078.95	164
2086.93	150
2094.91	160
2102.87	154
2110.83	150
2118.77	156
2126.71	162
2134.63	158
2142.55	154
2150.46	160
2158.35	166
2166.24	146
2174.12	162
2181.99	158
2189.85	150
2197.7	162
2205.55	160
2213.38	170
2221.2	152
2229.02	160
2236.82	166
2244.62	148
2252.4	158
2260.18	162
2267.95	166
2275.71	162
2283.46	168
2291.2	166
2298.93	162
2306.65	166
2314.37	182
2322.07	180
2329.77	174
2337.45	168
2345.13	160
2352.8	172
2360.46	166
2368.11	166
2375.75	168
2383.38	178
2391.01	176
2398.62	180
2406.23	176
2413.82	182
2421.41	168
2428.99	178
2436.56	176
2444.12	174
2449.79	170