File: Mixture_Classification/Jesse_Dataset_v2/Pure Raman/Polypropylene oxide/633nm/ps-ppo-7jan25-0,0000-map2_Y03_X08.txt
182.393	702
192.79	606
203.174	516
213.542	434
223.897	576
234.238	1304
244.566	864
254.878	442
265.178	288
275.463	286
285.734	368
295.992	638
306.236	466
316.467	388
326.684	364
336.887	398
347.075	334
357.251	386
367.413	322
377.562	312
387.697	260
397.819	230
407.926	266
418.02	358
428.101	222
438.169	172
448.223	170
458.264	190
468.291	232
478.306	388
488.307	468
498.294	232
508.269	264
518.23	330
528.177	394
538.113	800
548.034	468
557.942	498
567.838	2664
577.72	1566
587.589	574
597.446	456
607.289	238
617.119	210
626.936	276
636.741	332
646.533	228
656.313	212
666.078	184
675.831	166
685.571	168
695.299	178
705.014	180
714.716	238
724.406	188
734.082	204
743.746	282
753.398	288
763.037	208
772.664	198
782.278	206
791.879	196
801.467	196
811.044	206
820.608	260
830.16	798
839.699	400
849.226	262
858.741	232
868.243	200
877.731	190
887.209	176
896.674	170
906.128	174
915.569	174
924.997	180
934.414	216
943.818	260
953.211	584
962.59	890
971.958	456
981.314	230
990.659	226
999.99	202
1009.31	212
1018.62	236
1027.91	282
1037.2	268
1046.47	228
1055.73	220
1064.98	194
1074.22	192
1083.44	208
1092.65	200
1101.86	262
1111.05	826
1120.22	368
1129.39	238
1138.54	234
1147.69	232
1156.82	238
1165.94	274
1175.05	280
1184.14	522
1193.23	464
1202.3	484
1211.36	316
1220.41	254
1229.45	358
1238.48	250
1247.5	240
1256.5	238
1265.49	248
1274.48	266
1283.45	350
1292.41	508
1301.36	1542
1310.29	1326
1319.22	558
1328.13	484
1337.04	354
1345.93	354
1354.81	358
1363.68	328
1372.54	518
1381.38	1036
1390.22	392
1399.05	290
1407.86	282
1416.66	318
1425.46	428
1434.24	468
1443.01	498
1451.77	398
1460.52	368
1469.25	382
1477.98	380
1486.7	330
1495.4	288
1504.1	282
1512.78	292
1521.45	276
1530.11	268
1538.76	278
1547.41	290
1556.03	304
1564.65	298
1573.26	374
1581.86	458
1590.45	824
1599.02	1352
1607.59	1274
1616.14	752
1624.69	390
1633.22	298
1641.75	258
1650.26	250
1658.76	246
1667.26	238
1675.74	220
1684.21	230
1692.67	258
1701.12	232
1709.56	220
1717.99	240
1726.41	228
1734.82	206
1743.22	212
1751.61	204
1759.99	216
1768.36	240
1776.71	212
1785.06	210
1793.4	204
1801.73	226
1810.04	220
1818.35	216
1826.65	214
1834.94	206
1843.21	192
1851.48	238
1859.74	210
1867.98	220
1876.22	216
1884.45	214
1892.67	226
1900.87	208
1909.07	210
1917.26	210
1925.43	208
1933.6	224
1941.76	210
1949.91	218
1958.05	228
1966.17	212
1974.29	206
1982.4	202
1990.5	208
1998.59	232
2006.67	204
2014.74	220
2022.8	226
2030.85	212
2038.89	232
2046.92	204
2054.94	208
2062.95	212
2070.96	202
2078.95	212
2086.93	218
2094.91	216
2102.87	196
2110.83	206
2118.77	216
2126.71	208
2134.63	224
2142.55	210
2150.46	202
2158.35	210
2166.24	212
2174.12	212
2181.99	222
2189.85	206
2197.7	214
2205.55	210
2213.38	222
2221.2	200
2229.02	204
2236.82	218
2244.62	220
2252.4	216
2260.18	230
2267.95	220
2275.71	208
2283.46	208
2291.2	230
2298.93	222
2306.65	222
2314.37	234
2322.07	212
2329.77	228
2337.45	228
2345.13	208
2352.8	220
2360.46	218
2368.11	226
2375.75	212
2383.38	224
2391.01	226
2398.62	212
2406.23	246
2413.82	204
2421.41	204
2428.99	218
2436.56	220
2444.12	218
2449.79	196