File: Mixture_Classification/Jesse_Dataset_v2/Pure Raman/Polypropylene oxide/633nm/ps-ppo-7jan25-0,0000-map2_Y10_X03.txt
182.393	694
192.79	592
203.174	504
213.542	440
223.897	576
234.238	1246
244.566	886
254.878	462
265.178	310
275.463	268
285.734	356
295.992	616
306.236	456
316.467	332
326.684	366
336.887	398
347.075	336
357.251	356
367.413	310
377.562	318
387.697	244
397.819	212
407.926	252
418.02	340
428.101	216
438.169	190
448.223	164
458.264	174
468.291	210
478.306	390
488.307	448
498.294	228
508.269	240
518.23	292
528.177	370
538.113	740
548.034	442
557.942	484
567.838	2476
577.72	1546
587.589	582
597.446	464
607.289	228
617.119	222
626.936	260
636.741	300
646.533	252
656.313	190
666.078	172
675.831	146
685.571	170
695.299	144
705.014	184
714.716	254
724.406	194
734.082	204
743.746	250
753.398	274
763.037	198
772.664	190
782.278	216
791.879	206
801.467	184
811.044	192
820.608	244
830.16	770
839.699	386
849.226	262
858.741	232
868.243	180
877.731	178
887.209	178
896.674	162
906.128	164
915.569	174
924.997	176
934.414	176
943.818	230
953.211	502
962.59	892
971.958	436
981.314	238
990.659	224
999.99	202
1009.31	190
1018.62	222
1027.91	252
1037.2	280
1046.47	218
1055.73	206
1064.98	176
1074.22	186
1083.44	196
1092.65	206
1101.86	224
1111.05	794
1120.22	386
1129.39	264
1138.54	236
1147.69	220
1156.82	222
1165.94	226
1175.05	290
1184.14	518
1193.23	434
1202.3	480
1211.36	294
1220.41	230
1229.45	352
1238.48	246
1247.5	226
1256.5	218
1265.49	236
1274.48	242
1283.45	354
1292.41	464
1301.36	1540
1310.29	1328
1319.22	560
1328.13	442
1337.04	338
1345.93	340
1354.81	344
1363.68	278
1372.54	504
1381.38	1030
1390.22	374
1399.05	260
1407.86	244
1416.66	294
1425.46	388
1434.24	440
1443.01	462
1451.77	396
1460.52	384
1469.25	342
1477.98	332
1486.7	296
1495.4	252
1504.1	264
1512.78	280
1521.45	254
1530.11	248
1538.76	242
1547.41	250
1556.03	272
1564.65	284
1573.26	336
1581.86	422
1590.45	722
1599.02	1320
1607.59	1280
1616.14	722
1624.69	400
1633.22	304
1641.75	232
1650.26	242
1658.76	226
1667.26	222
1675.74	234
1684.21	226
1692.67	226
1701.12	232
1709.56	234
1717.99	214
1726.41	204
1734.82	200
1743.22	204
1751.61	192
1759.99	204
1768.36	206
1776.71	216
1785.06	206
1793.4	218
1801.73	194
1810.04	192
1818.35	194
1826.65	208
1834.94	200
1843.21	192
1851.48	198
1859.74	208
1867.98	198
1876.22	194
1884.45	202
1892.67	188
1900.87	200
1909.07	196
1917.26	206
1925.43	198
1933.6	200
1941.76	208
1949.91	208
1958.05	196
1966.17	200
1974.29	200
1982.4	202
1990.5	228
1998.59	192
2006.67	204
2014.74	220
2022.8	204
2030.85	204
2038.89	194
2046.92	192
2054.94	210
2062.95	194
2070.96	208
2078.95	196
2086.93	198
2094.91	208
2102.87	198
2110.83	200
2118.77	206
2126.71	196
2134.63	194
2142.55	202
2150.46	192
2158.35	194
2166.24	198
2174.12	202
2181.99	200
2189.85	178
2197.7	202
2205.55	182
2213.38	202
2221.2	206
2229.02	200
2236.82	192
2244.62	204
2252.4	188
2260.18	202
2267.95	204
2275.71	220
2283.46	200
2291.2	222
2298.93	214
2306.65	202
2314.37	206
2322.07	218
2329.77	208
2337.45	200
2345.13	202
2352.8	202
2360.46	204
2368.11	196
2375.75	200
2383.38	212
2391.01	226
2398.62	204
2406.23	234
2413.82	212
2421.41	214
2428.99	190
2436.56	196
2444.12	190
2449.79	192