File: Mixture_Classification/Jesse_Dataset_v2/Pure Raman/Polypropylene oxide/633nm/ps-ppo-7jan25-0,0000-map2_Y07_X05.txt
182.393	706
192.79	590
203.174	468
213.542	462
223.897	580
234.238	1266
244.566	832
254.878	470
265.178	306
275.463	286
285.734	358
295.992	622
306.236	470
316.467	360
326.684	352
336.887	396
347.075	344
357.251	354
367.413	322
377.562	298
387.697	238
397.819	232
407.926	280
418.02	332
428.101	220
438.169	192
448.223	164
458.264	162
468.291	226
478.306	392
488.307	428
498.294	228
508.269	262
518.23	316
528.177	386
538.113	756
548.034	450
557.942	496
567.838	2582
577.72	1498
587.589	594
597.446	464
607.289	240
617.119	208
626.936	290
636.741	330
646.533	244
656.313	204
666.078	176
675.831	164
685.571	180
695.299	162
705.014	184
714.716	242
724.406	200
734.082	192
743.746	270
753.398	288
763.037	204
772.664	204
782.278	218
791.879	192
801.467	192
811.044	220
820.608	254
830.16	778
839.699	372
849.226	276
858.741	222
868.243	186
877.731	186
887.209	186
896.674	180
906.128	174
915.569	182
924.997	190
934.414	178
943.818	228
953.211	522
962.59	842
971.958	446
981.314	252
990.659	244
999.99	176
1009.31	194
1018.62	232
1027.91	254
1037.2	274
1046.47	232
1055.73	204
1064.98	186
1074.22	190
1083.44	204
1092.65	206
1101.86	254
1111.05	804
1120.22	376
1129.39	262
1138.54	262
1147.69	228
1156.82	242
1165.94	246
1175.05	286
1184.14	552
1193.23	460
1202.3	448
1211.36	316
1220.41	248
1229.45	356
1238.48	238
1247.5	234
1256.5	222
1265.49	236
1274.48	286
1283.45	344
1292.41	496
1301.36	1508
1310.29	1314
1319.22	560
1328.13	458
1337.04	352
1345.93	350
1354.81	360
1363.68	304
1372.54	504
1381.38	1042
1390.22	426
1399.05	262
1407.86	260
1416.66	312
1425.46	406
1434.24	450
1443.01	512
1451.77	404
1460.52	378
1469.25	366
1477.98	342
1486.7	352
1495.4	280
1504.1	254
1512.78	270
1521.45	276
1530.11	272
1538.76	266
1547.41	280
1556.03	282
1564.65	288
1573.26	348
1581.86	458
1590.45	774
1599.02	1316
1607.59	1296
1616.14	722
1624.69	402
1633.22	298
1641.75	264
1650.26	242
1658.76	230
1667.26	228
1675.74	226
1684.21	240
1692.67	254
1701.12	264
1709.56	226
1717.99	210
1726.41	222
1734.82	214
1743.22	216
1751.61	216
1759.99	218
1768.36	228
1776.71	232
1785.06	220
1793.4	214
1801.73	212
1810.04	214
1818.35	214
1826.65	218
1834.94	228
1843.21	210
1851.48	202
1859.74	198
1867.98	202
1876.22	214
1884.45	214
1892.67	212
1900.87	230
1909.07	208
1917.26	210
1925.43	228
1933.6	212
1941.76	216
1949.91	210
1958.05	216
1966.17	216
1974.29	202
1982.4	218
1990.5	206
1998.59	224
2006.67	208
2014.74	206
2022.8	204
2030.85	214
2038.89	216
2046.92	202
2054.94	222
2062.95	214
2070.96	210
2078.95	208
2086.93	210
2094.91	206
2102.87	206
2110.83	218
2118.77	210
2126.71	220
2134.63	226
2142.55	226
2150.46	216
2158.35	232
2166.24	216
2174.12	204
2181.99	210
2189.85	216
2197.7	208
2205.55	216
2213.38	212
2221.2	220
2229.02	212
2236.82	222
2244.62	214
2252.4	208
2260.18	194
2267.95	212
2275.71	222
2283.46	220
2291.2	222
2298.93	202
2306.65	228
2314.37	230
2322.07	222
2329.77	202
2337.45	216
2345.13	220
2352.8	204
2360.46	216
2368.11	206
2375.75	204
2383.38	226
2391.01	224
2398.62	218
2406.23	216
2413.82	212
2421.41	184
2428.99	208
2436.56	192
2444.12	224
2449.79	202