File: Mixture_Classification/Jesse_Dataset_v2/Pure Raman/Polypropylene oxide/633nm/ps-ppo-7jan25-0,0000-map2_Y07_X00.txt
182.393	724
192.79	594
203.174	522
213.542	484
223.897	614
234.238	1306
244.566	904
254.878	490
265.178	328
275.463	308
285.734	404
295.992	632
306.236	468
316.467	374
326.684	394
336.887	410
347.075	368
357.251	372
367.413	320
377.562	334
387.697	266
397.819	262
407.926	298
418.02	366
428.101	266
438.169	210
448.223	206
458.264	200
468.291	262
478.306	420
488.307	486
498.294	232
508.269	272
518.23	342
528.177	392
538.113	816
548.034	440
557.942	518
567.838	2702
577.72	1552
587.589	612
597.446	488
607.289	248
617.119	216
626.936	290
636.741	332
646.533	278
656.313	216
666.078	208
675.831	192
685.571	206
695.299	190
705.014	220
714.716	258
724.406	248
734.082	234
743.746	306
753.398	310
763.037	212
772.664	214
782.278	216
791.879	228
801.467	212
811.044	252
820.608	264
830.16	840
839.699	428
849.226	300
858.741	264
868.243	234
877.731	220
887.209	218
896.674	192
906.128	192
915.569	210
924.997	202
934.414	214
943.818	282
953.211	564
962.59	886
971.958	508
981.314	258
990.659	240
999.99	230
1009.31	214
1018.62	244
1027.91	294
1037.2	308
1046.47	268
1055.73	242
1064.98	232
1074.22	218
1083.44	220
1092.65	240
1101.86	268
1111.05	852
1120.22	416
1129.39	270
1138.54	268
1147.69	254
1156.82	266
1165.94	290
1175.05	300
1184.14	576
1193.23	470
1202.3	502
1211.36	324
1220.41	274
1229.45	382
1238.48	260
1247.5	248
1256.5	264
1265.49	270
1274.48	278
1283.45	380
1292.41	514
1301.36	1606
1310.29	1328
1319.22	558
1328.13	474
1337.04	360
1345.93	384
1354.81	384
1363.68	328
1372.54	568
1381.38	1062
1390.22	436
1399.05	298
1407.86	300
1416.66	374
1425.46	424
1434.24	492
1443.01	498
1451.77	434
1460.52	386
1469.25	372
1477.98	358
1486.7	340
1495.4	316
1504.1	296
1512.78	300
1521.45	300
1530.11	314
1538.76	310
1547.41	304
1556.03	322
1564.65	288
1573.26	370
1581.86	472
1590.45	782
1599.02	1414
1607.59	1314
1616.14	768
1624.69	432
1633.22	320
1641.75	296
1650.26	254
1658.76	260
1667.26	270
1675.74	268
1684.21	246
1692.67	274
1701.12	306
1709.56	264
1717.99	266
1726.41	244
1734.82	226
1743.22	254
1751.61	232
1759.99	232
1768.36	236
1776.71	226
1785.06	236
1793.4	228
1801.73	230
1810.04	234
1818.35	238
1826.65	232
1834.94	226
1843.21	238
1851.48	230
1859.74	246
1867.98	232
1876.22	238
1884.45	242
1892.67	232
1900.87	228
1909.07	234
1917.26	242
1925.43	228
1933.6	238
1941.76	218
1949.91	260
1958.05	240
1966.17	224
1974.29	228
1982.4	240
1990.5	224
1998.59	228
2006.67	222
2014.74	232
2022.8	222
2030.85	238
2038.89	226
2046.92	256
2054.94	254
2062.95	244
2070.96	238
2078.95	236
2086.93	242
2094.91	232
2102.87	222
2110.83	232
2118.77	232
2126.71	220
2134.63	218
2142.55	220
2150.46	236
2158.35	222
2166.24	238
2174.12	246
2181.99	226
2189.85	210
2197.7	238
2205.55	216
2213.38	220
2221.2	232
2229.02	210
2236.82	232
2244.62	232
2252.4	230
2260.18	228
2267.95	220
2275.71	246
2283.46	218
2291.2	228
2298.93	226
2306.65	228
2314.37	240
2322.07	224
2329.77	254
2337.45	248
2345.13	232
2352.8	224
2360.46	210
2368.11	230
2375.75	222
2383.38	236
2391.01	252
2398.62	216
2406.23	240
2413.82	234
2421.41	234
2428.99	216
2436.56	240
2444.12	200
2449.79	230