File: Mixture_Classification/Jesse_Dataset_v2/Pure Raman/Polypropylene oxide/633nm/ps-ppo-7jan25-0,0000-map2_Y06_X02.txt
182.393	680
192.79	580
203.174	520
213.542	440
223.897	574
234.238	1240
244.566	862
254.878	466
265.178	296
275.463	292
285.734	366
295.992	632
306.236	444
316.467	374
326.684	376
336.887	374
347.075	320
357.251	348
367.413	316
377.562	302
387.697	248
397.819	224
407.926	256
418.02	332
428.101	230
438.169	172
448.223	162
458.264	170
468.291	224
478.306	406
488.307	438
498.294	222
508.269	254
518.23	288
528.177	374
538.113	764
548.034	440
557.942	518
567.838	2712
577.72	1544
587.589	598
597.446	436
607.289	232
617.119	210
626.936	276
636.741	316
646.533	244
656.313	204
666.078	186
675.831	146
685.571	172
695.299	146
705.014	174
714.716	232
724.406	206
734.082	208
743.746	264
753.398	280
763.037	196
772.664	186
782.278	214
791.879	204
801.467	190
811.044	202
820.608	218
830.16	782
839.699	392
849.226	256
858.741	234
868.243	192
877.731	182
887.209	198
896.674	178
906.128	164
915.569	186
924.997	188
934.414	186
943.818	262
953.211	532
962.59	842
971.958	446
981.314	228
990.659	232
999.99	198
1009.31	196
1018.62	212
1027.91	256
1037.2	272
1046.47	226
1055.73	206
1064.98	198
1074.22	210
1083.44	204
1092.65	202
1101.86	242
1111.05	838
1120.22	366
1129.39	250
1138.54	250
1147.69	216
1156.82	232
1165.94	272
1175.05	294
1184.14	544
1193.23	436
1202.3	456
1211.36	304
1220.41	238
1229.45	334
1238.48	236
1247.5	208
1256.5	202
1265.49	226
1274.48	256
1283.45	344
1292.41	492
1301.36	1582
1310.29	1326
1319.22	532
1328.13	472
1337.04	340
1345.93	368
1354.81	354
1363.68	312
1372.54	540
1381.38	1038
1390.22	416
1399.05	248
1407.86	278
1416.66	306
1425.46	404
1434.24	438
1443.01	486
1451.77	380
1460.52	380
1469.25	368
1477.98	368
1486.7	304
1495.4	272
1504.1	262
1512.78	264
1521.45	258
1530.11	274
1538.76	270
1547.41	284
1556.03	304
1564.65	284
1573.26	358
1581.86	470
1590.45	772
1599.02	1330
1607.59	1250
1616.14	752
1624.69	382
1633.22	312
1641.75	252
1650.26	240
1658.76	208
1667.26	230
1675.74	216
1684.21	234
1692.67	252
1701.12	248
1709.56	220
1717.99	238
1726.41	200
1734.82	210
1743.22	206
1751.61	212
1759.99	204
1768.36	198
1776.71	194
1785.06	218
1793.4	198
1801.73	200
1810.04	200
1818.35	184
1826.65	194
1834.94	200
1843.21	198
1851.48	218
1859.74	202
1867.98	190
1876.22	206
1884.45	208
1892.67	180
1900.87	196
1909.07	204
1917.26	210
1925.43	200
1933.6	214
1941.76	210
1949.91	216
1958.05	198
1966.17	212
1974.29	204
1982.4	202
1990.5	206
1998.59	192
2006.67	208
2014.74	188
2022.8	210
2030.85	208
2038.89	200
2046.92	216
2054.94	192
2062.95	196
2070.96	210
2078.95	202
2086.93	210
2094.91	222
2102.87	196
2110.83	196
2118.77	204
2126.71	196
2134.63	206
2142.55	202
2150.46	218
2158.35	212
2166.24	194
2174.12	208
2181.99	184
2189.85	206
2197.7	212
2205.55	196
2213.38	206
2221.2	200
2229.02	198
2236.82	194
2244.62	206
2252.4	208
2260.18	204
2267.95	204
2275.71	208
2283.46	200
2291.2	208
2298.93	204
2306.65	212
2314.37	194
2322.07	204
2329.77	214
2337.45	210
2345.13	220
2352.8	196
2360.46	198
2368.11	214
2375.75	214
2383.38	202
2391.01	218
2398.62	212
2406.23	210
2413.82	202
2421.41	202
2428.99	184
2436.56	202
2444.12	214
2449.79	206