File: Mixture_Classification/Jesse_Dataset_v2/Pure Raman/Polypropylene oxide/633nm/ps-ppo-7jan25-0,0000-map2_Y04_X00.txt
182.393	758
192.79	598
203.174	538
213.542	486
223.897	614
234.238	1274
244.566	924
254.878	478
265.178	314
275.463	294
285.734	436
295.992	644
306.236	516
316.467	422
326.684	396
336.887	402
347.075	378
357.251	392
367.413	360
377.562	356
387.697	312
397.819	264
407.926	302
418.02	360
428.101	272
438.169	226
448.223	210
458.264	188
468.291	264
478.306	444
488.307	500
498.294	266
508.269	292
518.23	340
528.177	424
538.113	822
548.034	482
557.942	502
567.838	2764
577.72	1606
587.589	648
597.446	464
607.289	266
617.119	244
626.936	308
636.741	328
646.533	266
656.313	222
666.078	218
675.831	192
685.571	212
695.299	208
705.014	214
714.716	272
724.406	256
734.082	256
743.746	314
753.398	340
763.037	248
772.664	236
782.278	240
791.879	232
801.467	228
811.044	244
820.608	266
830.16	814
839.699	442
849.226	300
858.741	274
868.243	224
877.731	234
887.209	220
896.674	218
906.128	216
915.569	190
924.997	218
934.414	224
943.818	296
953.211	576
962.59	920
971.958	482
981.314	256
990.659	260
999.99	246
1009.31	234
1018.62	256
1027.91	298
1037.2	320
1046.47	262
1055.73	244
1064.98	238
1074.22	234
1083.44	230
1092.65	258
1101.86	256
1111.05	876
1120.22	408
1129.39	296
1138.54	264
1147.69	270
1156.82	292
1165.94	276
1175.05	326
1184.14	596
1193.23	482
1202.3	526
1211.36	330
1220.41	278
1229.45	390
1238.48	280
1247.5	280
1256.5	258
1265.49	266
1274.48	326
1283.45	364
1292.41	520
1301.36	1618
1310.29	1380
1319.22	604
1328.13	494
1337.04	382
1345.93	404
1354.81	384
1363.68	336
1372.54	594
1381.38	1130
1390.22	430
1399.05	320
1407.86	302
1416.66	370
1425.46	460
1434.24	496
1443.01	538
1451.77	444
1460.52	420
1469.25	400
1477.98	382
1486.7	336
1495.4	318
1504.1	306
1512.78	300
1521.45	306
1530.11	318
1538.76	300
1547.41	316
1556.03	324
1564.65	320
1573.26	386
1581.86	472
1590.45	818
1599.02	1384
1607.59	1358
1616.14	782
1624.69	432
1633.22	326
1641.75	302
1650.26	272
1658.76	254
1667.26	264
1675.74	272
1684.21	278
1692.67	274
1701.12	294
1709.56	272
1717.99	260
1726.41	256
1734.82	252
1743.22	262
1751.61	252
1759.99	242
1768.36	248
1776.71	246
1785.06	262
1793.4	234
1801.73	248
1810.04	238
1818.35	240
1826.65	250
1834.94	230
1843.21	248
1851.48	242
1859.74	250
1867.98	246
1876.22	256
1884.45	226
1892.67	246
1900.87	246
1909.07	232
1917.26	248
1925.43	228
1933.6	240
1941.76	238
1949.91	230
1958.05	246
1966.17	236
1974.29	244
1982.4	242
1990.5	240
1998.59	244
2006.67	226
2014.74	254
2022.8	254
2030.85	240
2038.89	232
2046.92	260
2054.94	236
2062.95	226
2070.96	250
2078.95	256
2086.93	242
2094.91	242
2102.87	228
2110.83	236
2118.77	234
2126.71	232
2134.63	240
2142.55	234
2150.46	234
2158.35	244
2166.24	244
2174.12	242
2181.99	228
2189.85	236
2197.7	220
2205.55	248
2213.38	238
2221.2	236
2229.02	238
2236.82	238
2244.62	228
2252.4	236
2260.18	232
2267.95	234
2275.71	262
2283.46	244
2291.2	230
2298.93	218
2306.65	240
2314.37	250
2322.07	256
2329.77	242
2337.45	242
2345.13	232
2352.8	226
2360.46	244
2368.11	242
2375.75	238
2383.38	230
2391.01	236
2398.62	254
2406.23	242
2413.82	242
2421.41	244
2428.99	232
2436.56	242
2444.12	234
2449.79	244