File: Mixture_Classification/Jesse_Dataset_v2/Pure Raman/Polypropylene oxide/633nm/ps-ppo-7jan25-0,0000-map2_Y00_X01.txt
182.393	756
192.79	666
203.174	572
213.542	510
223.897	674
234.238	1314
244.566	950
254.878	532
265.178	376
275.463	316
285.734	408
295.992	678
306.236	526
316.467	402
326.684	426
336.887	440
347.075	416
357.251	406
367.413	394
377.562	340
387.697	306
397.819	286
407.926	330
418.02	426
428.101	276
438.169	242
448.223	230
458.264	240
468.291	308
478.306	470
488.307	514
498.294	288
508.269	336
518.23	380
528.177	474
538.113	834
548.034	514
557.942	612
567.838	2882
577.72	1614
587.589	666
597.446	498
607.289	300
617.119	282
626.936	336
636.741	386
646.533	314
656.313	268
666.078	250
675.831	224
685.571	234
695.299	220
705.014	242
714.716	322
724.406	272
734.082	268
743.746	348
753.398	360
763.037	268
772.664	284
782.278	300
791.879	254
801.467	248
811.044	284
820.608	332
830.16	880
839.699	500
849.226	318
858.741	322
868.243	284
877.731	250
887.209	266
896.674	244
906.128	246
915.569	248
924.997	238
934.414	254
943.818	324
953.211	614
962.59	948
971.958	506
981.314	304
990.659	286
999.99	254
1009.31	270
1018.62	312
1027.91	336
1037.2	358
1046.47	292
1055.73	274
1064.98	278
1074.22	274
1083.44	280
1092.65	256
1101.86	298
1111.05	926
1120.22	452
1129.39	308
1138.54	310
1147.69	290
1156.82	310
1165.94	352
1175.05	332
1184.14	640
1193.23	526
1202.3	542
1211.36	374
1220.41	314
1229.45	426
1238.48	324
1247.5	282
1256.5	324
1265.49	324
1274.48	318
1283.45	422
1292.41	586
1301.36	1662
1310.29	1404
1319.22	626
1328.13	542
1337.04	394
1345.93	414
1354.81	444
1363.68	384
1372.54	614
1381.38	1164
1390.22	442
1399.05	356
1407.86	332
1416.66	386
1425.46	474
1434.24	552
1443.01	584
1451.77	462
1460.52	474
1469.25	412
1477.98	436
1486.7	378
1495.4	354
1504.1	368
1512.78	338
1521.45	348
1530.11	332
1538.76	358
1547.41	340
1556.03	362
1564.65	370
1573.26	448
1581.86	534
1590.45	858
1599.02	1488
1607.59	1326
1616.14	826
1624.69	466
1633.22	350
1641.75	342
1650.26	332
1658.76	298
1667.26	286
1675.74	288
1684.21	316
1692.67	306
1701.12	334
1709.56	314
1717.99	306
1726.41	300
1734.82	276
1743.22	280
1751.61	304
1759.99	298
1768.36	266
1776.71	272
1785.06	280
1793.4	298
1801.73	248
1810.04	280
1818.35	264
1826.65	266
1834.94	278
1843.21	276
1851.48	284
1859.74	270
1867.98	290
1876.22	280
1884.45	268
1892.67	280
1900.87	284
1909.07	286
1917.26	294
1925.43	280
1933.6	280
1941.76	270
1949.91	292
1958.05	264
1966.17	272
1974.29	278
1982.4	310
1990.5	270
1998.59	278
2006.67	258
2014.74	256
2022.8	282
2030.85	272
2038.89	270
2046.92	262
2054.94	262
2062.95	260
2070.96	268
2078.95	270
2086.93	264
2094.91	278
2102.87	264
2110.83	266
2118.77	256
2126.71	250
2134.63	264
2142.55	268
2150.46	256
2158.35	252
2166.24	242
2174.12	270
2181.99	268
2189.85	258
2197.7	260
2205.55	256
2213.38	272
2221.2	236
2229.02	256
2236.82	262
2244.62	264
2252.4	280
2260.18	262
2267.95	236
2275.71	254
2283.46	234
2291.2	244
2298.93	252
2306.65	272
2314.37	254
2322.07	266
2329.77	270
2337.45	258
2345.13	268
2352.8	252
2360.46	262
2368.11	258
2375.75	256
2383.38	244
2391.01	272
2398.62	282
2406.23	270
2413.82	280
2421.41	248
2428.99	256
2436.56	252
2444.12	256
2449.79	254