File: Mixture_Classification/Jesse_Dataset_v2/Pure Raman/Polypropylene oxide/633nm/ps-ppo-7jan25-0,0000-map2_Y09_X09.txt
182.393	686
192.79	590
203.174	520
213.542	444
223.897	598
234.238	1232
244.566	858
254.878	470
265.178	328
275.463	306
285.734	400
295.992	622
306.236	466
316.467	370
326.684	400
336.887	422
347.075	352
357.251	358
367.413	336
377.562	322
387.697	246
397.819	246
407.926	282
418.02	342
428.101	254
438.169	190
448.223	186
458.264	178
468.291	266
478.306	398
488.307	442
498.294	272
508.269	252
518.23	304
528.177	370
538.113	756
548.034	458
557.942	528
567.838	2496
577.72	1538
587.589	586
597.446	474
607.289	248
617.119	222
626.936	266
636.741	320
646.533	244
656.313	226
666.078	192
675.831	186
685.571	172
695.299	194
705.014	194
714.716	258
724.406	200
734.082	216
743.746	298
753.398	290
763.037	214
772.664	192
782.278	218
791.879	206
801.467	186
811.044	210
820.608	258
830.16	744
839.699	376
849.226	266
858.741	242
868.243	212
877.731	196
887.209	190
896.674	194
906.128	192
915.569	188
924.997	208
934.414	216
943.818	264
953.211	536
962.59	874
971.958	460
981.314	262
990.659	242
999.99	208
1009.31	186
1018.62	254
1027.91	256
1037.2	302
1046.47	252
1055.73	218
1064.98	206
1074.22	206
1083.44	206
1092.65	200
1101.86	240
1111.05	792
1120.22	374
1129.39	256
1138.54	254
1147.69	234
1156.82	252
1165.94	260
1175.05	286
1184.14	550
1193.23	448
1202.3	470
1211.36	324
1220.41	242
1229.45	352
1238.48	264
1247.5	232
1256.5	224
1265.49	256
1274.48	258
1283.45	370
1292.41	486
1301.36	1510
1310.29	1296
1319.22	568
1328.13	464
1337.04	336
1345.93	370
1354.81	342
1363.68	312
1372.54	536
1381.38	992
1390.22	386
1399.05	310
1407.86	298
1416.66	352
1425.46	422
1434.24	444
1443.01	506
1451.77	398
1460.52	404
1469.25	358
1477.98	382
1486.7	312
1495.4	288
1504.1	296
1512.78	276
1521.45	272
1530.11	276
1538.76	252
1547.41	284
1556.03	298
1564.65	316
1573.26	346
1581.86	448
1590.45	726
1599.02	1322
1607.59	1276
1616.14	718
1624.69	410
1633.22	296
1641.75	278
1650.26	240
1658.76	252
1667.26	240
1675.74	248
1684.21	236
1692.67	254
1701.12	246
1709.56	260
1717.99	232
1726.41	226
1734.82	216
1743.22	208
1751.61	216
1759.99	226
1768.36	226
1776.71	212
1785.06	208
1793.4	222
1801.73	216
1810.04	212
1818.35	228
1826.65	218
1834.94	212
1843.21	208
1851.48	208
1859.74	208
1867.98	224
1876.22	222
1884.45	216
1892.67	218
1900.87	228
1909.07	216
1917.26	218
1925.43	230
1933.6	206
1941.76	216
1949.91	212
1958.05	216
1966.17	220
1974.29	218
1982.4	198
1990.5	214
1998.59	218
2006.67	218
2014.74	218
2022.8	222
2030.85	224
2038.89	200
2046.92	218
2054.94	212
2062.95	226
2070.96	240
2078.95	216
2086.93	208
2094.91	218
2102.87	210
2110.83	220
2118.77	218
2126.71	216
2134.63	222
2142.55	220
2150.46	210
2158.35	226
2166.24	220
2174.12	220
2181.99	200
2189.85	228
2197.7	206
2205.55	208
2213.38	242
2221.2	208
2229.02	210
2236.82	204
2244.62	218
2252.4	212
2260.18	228
2267.95	228
2275.71	208
2283.46	216
2291.2	224
2298.93	222
2306.65	208
2314.37	218
2322.07	234
2329.77	240
2337.45	228
2345.13	206
2352.8	214
2360.46	212
2368.11	216
2375.75	220
2383.38	232
2391.01	230
2398.62	222
2406.23	222
2413.82	206
2421.41	216
2428.99	208
2436.56	228
2444.12	212
2449.79	244