File: Mixture_Classification/Jesse_Dataset_v2/Pure Raman/Polypropylene oxide/633nm/ps-ppo-7jan25-0,0000-map2_Y07_X07.txt
182.393	718
192.79	594
203.174	508
213.542	478
223.897	616
234.238	1232
244.566	866
254.878	470
265.178	316
275.463	264
285.734	394
295.992	620
306.236	456
316.467	386
326.684	376
336.887	374
347.075	360
357.251	348
367.413	302
377.562	324
387.697	242
397.819	240
407.926	270
418.02	332
428.101	258
438.169	190
448.223	176
458.264	170
468.291	228
478.306	410
488.307	446
498.294	226
508.269	274
518.23	302
528.177	340
538.113	762
548.034	476
557.942	492
567.838	2578
577.72	1522
587.589	588
597.446	452
607.289	240
617.119	240
626.936	278
636.741	306
646.533	246
656.313	200
666.078	172
675.831	166
685.571	174
695.299	154
705.014	166
714.716	240
724.406	216
734.082	228
743.746	266
753.398	286
763.037	206
772.664	202
782.278	202
791.879	202
801.467	186
811.044	210
820.608	222
830.16	746
839.699	404
849.226	272
858.741	250
868.243	190
877.731	190
887.209	190
896.674	174
906.128	166
915.569	184
924.997	174
934.414	198
943.818	248
953.211	524
962.59	872
971.958	432
981.314	240
990.659	212
999.99	190
1009.31	192
1018.62	220
1027.91	250
1037.2	260
1046.47	230
1055.73	208
1064.98	210
1074.22	204
1083.44	202
1092.65	200
1101.86	232
1111.05	810
1120.22	352
1129.39	236
1138.54	246
1147.69	228
1156.82	252
1165.94	250
1175.05	280
1184.14	532
1193.23	440
1202.3	462
1211.36	276
1220.41	248
1229.45	342
1238.48	252
1247.5	212
1256.5	202
1265.49	256
1274.48	246
1283.45	334
1292.41	482
1301.36	1540
1310.29	1310
1319.22	548
1328.13	460
1337.04	336
1345.93	362
1354.81	364
1363.68	284
1372.54	506
1381.38	1032
1390.22	400
1399.05	276
1407.86	282
1416.66	306
1425.46	410
1434.24	442
1443.01	528
1451.77	364
1460.52	374
1469.25	372
1477.98	364
1486.7	312
1495.4	276
1504.1	264
1512.78	254
1521.45	236
1530.11	276
1538.76	270
1547.41	266
1556.03	300
1564.65	300
1573.26	328
1581.86	476
1590.45	780
1599.02	1292
1607.59	1288
1616.14	730
1624.69	394
1633.22	300
1641.75	260
1650.26	240
1658.76	238
1667.26	208
1675.74	218
1684.21	226
1692.67	242
1701.12	252
1709.56	268
1717.99	234
1726.41	212
1734.82	212
1743.22	216
1751.61	198
1759.99	214
1768.36	216
1776.71	226
1785.06	202
1793.4	208
1801.73	210
1810.04	210
1818.35	194
1826.65	196
1834.94	200
1843.21	190
1851.48	200
1859.74	208
1867.98	202
1876.22	198
1884.45	216
1892.67	210
1900.87	186
1909.07	208
1917.26	210
1925.43	206
1933.6	190
1941.76	212
1949.91	212
1958.05	212
1966.17	210
1974.29	216
1982.4	208
1990.5	196
1998.59	220
2006.67	224
2014.74	196
2022.8	204
2030.85	202
2038.89	206
2046.92	206
2054.94	200
2062.95	214
2070.96	202
2078.95	206
2086.93	210
2094.91	206
2102.87	218
2110.83	202
2118.77	216
2126.71	202
2134.63	212
2142.55	180
2150.46	198
2158.35	200
2166.24	204
2174.12	198
2181.99	214
2189.85	190
2197.7	192
2205.55	206
2213.38	190
2221.2	196
2229.02	210
2236.82	200
2244.62	210
2252.4	212
2260.18	188
2267.95	198
2275.71	220
2283.46	196
2291.2	214
2298.93	198
2306.65	224
2314.37	224
2322.07	220
2329.77	206
2337.45	218
2345.13	218
2352.8	204
2360.46	204
2368.11	202
2375.75	226
2383.38	212
2391.01	226
2398.62	212
2406.23	192
2413.82	196
2421.41	210
2428.99	212
2436.56	214
2444.12	220
2449.79	206