File: Mixture_Classification/Jesse_Dataset_v2/Pure Raman/Polypropylene oxide/633nm/ps-ppo-7jan25-0,0000-map2_Y06_X07.txt
182.393	682
192.79	570
203.174	518
213.542	420
223.897	580
234.238	1234
244.566	866
254.878	482
265.178	288
275.463	258
285.734	364
295.992	610
306.236	444
316.467	360
326.684	376
336.887	382
347.075	356
357.251	360
367.413	320
377.562	294
387.697	216
397.819	218
407.926	254
418.02	350
428.101	204
438.169	180
448.223	160
458.264	152
468.291	222
478.306	396
488.307	426
498.294	230
508.269	252
518.23	308
528.177	380
538.113	748
548.034	424
557.942	488
567.838	2632
577.72	1522
587.589	580
597.446	446
607.289	220
617.119	206
626.936	228
636.741	318
646.533	240
656.313	188
666.078	162
675.831	156
685.571	158
695.299	138
705.014	160
714.716	266
724.406	198
734.082	212
743.746	250
753.398	260
763.037	192
772.664	186
782.278	196
791.879	174
801.467	166
811.044	192
820.608	214
830.16	774
839.699	370
849.226	256
858.741	204
868.243	178
877.731	176
887.209	148
896.674	156
906.128	160
915.569	170
924.997	158
934.414	172
943.818	228
953.211	504
962.59	902
971.958	426
981.314	232
990.659	192
999.99	184
1009.31	190
1018.62	204
1027.91	254
1037.2	244
1046.47	222
1055.73	204
1064.98	192
1074.22	188
1083.44	190
1092.65	192
1101.86	234
1111.05	786
1120.22	364
1129.39	244
1138.54	220
1147.69	216
1156.82	224
1165.94	264
1175.05	258
1184.14	542
1193.23	432
1202.3	436
1211.36	294
1220.41	218
1229.45	314
1238.48	226
1247.5	210
1256.5	210
1265.49	218
1274.48	242
1283.45	340
1292.41	468
1301.36	1542
1310.29	1292
1319.22	498
1328.13	422
1337.04	328
1345.93	368
1354.81	352
1363.68	308
1372.54	518
1381.38	1000
1390.22	366
1399.05	254
1407.86	248
1416.66	296
1425.46	380
1434.24	468
1443.01	456
1451.77	390
1460.52	362
1469.25	346
1477.98	342
1486.7	288
1495.4	284
1504.1	268
1512.78	288
1521.45	260
1530.11	268
1538.76	260
1547.41	242
1556.03	284
1564.65	284
1573.26	338
1581.86	446
1590.45	728
1599.02	1318
1607.59	1258
1616.14	720
1624.69	408
1633.22	280
1641.75	250
1650.26	224
1658.76	232
1667.26	220
1675.74	216
1684.21	220
1692.67	222
1701.12	210
1709.56	222
1717.99	208
1726.41	224
1734.82	200
1743.22	192
1751.61	202
1759.99	202
1768.36	210
1776.71	198
1785.06	206
1793.4	176
1801.73	192
1810.04	210
1818.35	194
1826.65	200
1834.94	178
1843.21	180
1851.48	188
1859.74	188
1867.98	196
1876.22	170
1884.45	216
1892.67	192
1900.87	206
1909.07	204
1917.26	204
1925.43	194
1933.6	190
1941.76	190
1949.91	182
1958.05	206
1966.17	190
1974.29	198
1982.4	192
1990.5	206
1998.59	200
2006.67	200
2014.74	198
2022.8	194
2030.85	204
2038.89	190
2046.92	192
2054.94	204
2062.95	200
2070.96	200
2078.95	188
2086.93	196
2094.91	180
2102.87	196
2110.83	206
2118.77	202
2126.71	190
2134.63	190
2142.55	182
2150.46	186
2158.35	190
2166.24	184
2174.12	202
2181.99	222
2189.85	188
2197.7	202
2205.55	178
2213.38	210
2221.2	196
2229.02	188
2236.82	194
2244.62	212
2252.4	194
2260.18	202
2267.95	182
2275.71	202
2283.46	196
2291.2	202
2298.93	196
2306.65	190
2314.37	202
2322.07	190
2329.77	204
2337.45	196
2345.13	214
2352.8	204
2360.46	204
2368.11	200
2375.75	212
2383.38	196
2391.01	208
2398.62	214
2406.23	220
2413.82	202
2421.41	196
2428.99	188
2436.56	208
2444.12	186
2449.79	204