File: Jesse_Dataset_v2/Pure Raman/Polystyrene/785nm/ps-ppo-6jan25-1,0000-map3_Y04_X10.txt
204.377	808
211.048	892
217.712	930
224.369	908
231.019	718
237.661	536
244.297	388
250.924	328
257.546	266
264.16	254
270.766	262
277.365	236
283.958	218
290.543	194
297.121	180
303.693	174
310.256	168
316.813	170
323.362	180
329.905	182
336.441	170
342.969	168
349.491	166
356.006	154
362.513	144
369.014	156
375.508	164
381.994	176
388.473	188
394.947	204
401.412	222
407.871	234
414.323	208
420.768	172
427.206	154
433.637	150
440.062	146
446.479	130
452.89	128
459.293	114
465.691	116
472.081	116
478.463	112
484.84	112
491.21	108
497.573	106
503.929	120
510.279	116
516.621	120
522.957	126
529.287	128
535.609	136
541.925	148
548.234	160
554.536	140
560.832	130
567.12	136
573.403	144
579.679	116
585.948	112
592.211	98
598.466	102
604.715	134
610.958	152
617.194	318
623.424	458
629.647	160
635.864	114
642.074	94
648.276	86
654.473	80
660.664	78
666.847	74
673.025	78
679.195	78
685.36	74
691.517	72
697.669	82
703.814	102
709.953	102
716.085	100
722.21	132
728.33	126
734.443	130
740.549	182
746.65	182
752.743	214
758.831	248
764.912	216
770.986	216
777.055	186
783.117	248
789.173	294
795.222	332
801.265	274
807.302	190
813.333	158
819.357	134
825.376	106
831.387	116
837.392	136
843.392	150
849.386	136
855.372	126
861.353	136
867.328	122
873.296	124
879.258	114
885.214	106
891.164	126
897.108	120
903.046	146
908.977	144
914.903	120
920.822	104
926.735	96
932.643	98
938.543	108
944.439	104
950.328	110
956.21	102
962.088	126
967.958	122
973.824	134
979.682	192
985.534	282
991.382	762
997.222	1226
1003.06	2878
1008.89	436
1014.71	198
1020.53	228
1026.34	492
1032.14	876
1037.94	416
1043.73	208
1049.52	156
1055.3	142
1061.08	156
1066.85	170
1072.61	172
1078.37	170
1084.12	170
1089.87	160
1095.61	180
1101.34	168
1107.07	160
1112.8	132
1118.51	128
1124.22	106
1129.93	108
1135.63	112
1141.32	126
1147.01	186
1152.69	362
1158.37	348
1164.04	222
1169.71	232
1175.37	312
1181.02	524
1186.67	446
1192.31	474
1197.95	512
1203.58	464
1209.2	324
1214.82	236
1220.44	210
1226.05	194
1231.65	184
1237.25	164
1242.84	172
1248.42	168
1254	170
1259.58	184
1265.15	174
1270.71	170
1276.27	162
1281.82	176
1287.37	186
1292.91	190
1298.45	206
1303.98	230
1309.5	228
1315.02	250
1320.53	270
1326.04	296
1331.54	298
1337.04	296
1342.53	276
1348.02	284
1353.5	290
1358.98	266
1364.45	274
1369.91	282
1375.37	286
1380.82	268
1386.27	254
1391.71	242
1397.15	244
1402.58	242
1408.01	248
1413.43	250
1418.85	234
1424.26	218
1429.66	232
1435.06	258
1440.46	286
1445.85	304
1451.23	354
1456.61	274
1461.98	222
1467.35	196
1472.71	192
1478.07	188
1483.42	184
1488.77	180
1494.11	190
1499.45	182
1504.78	172
1510.11	186
1515.43	174
1520.74	180
1526.05	178
1531.36	166
1536.66	176
1541.95	154
1547.24	176
1552.52	158
1557.8	170
1563.08	176
1568.35	180
1573.61	214
1578.87	266
1584.12	396
1589.37	262
1594.61	318
1599.85	610
1605.08	568
1610.31	262
1615.53	206
1620.75	182
1625.96	168
1631.17	156
1636.37	170
1641.57	158
1646.76	158
1651.95	140
1657.13	148
1662.31	146
1667.48	126
1672.65	124
1677.81	142
1682.97	138
1688.12	126
1693.27	134
1698.41	118
1702.26	130