File: Jesse_Dataset_v2/Pure Raman/Polystyrene/785nm/ps-ppo-6jan25-1,0000-map3_Y02_X08.txt
204.377	840
211.048	876
217.712	876
224.369	892
231.019	726
237.661	564
244.297	384
250.924	310
257.546	274
264.16	246
270.766	254
277.365	234
283.958	208
290.543	176
297.121	176
303.693	168
310.256	166
316.813	172
323.362	164
329.905	178
336.441	160
342.969	156
349.491	152
356.006	144
362.513	160
369.014	146
375.508	158
381.994	164
388.473	188
394.947	192
401.412	208
407.871	226
414.323	200
420.768	170
427.206	148
433.637	130
440.062	140
446.479	138
452.89	118
459.293	108
465.691	96
472.081	112
478.463	106
484.84	104
491.21	94
497.573	96
503.929	100
510.279	106
516.621	98
522.957	124
529.287	116
535.609	140
541.925	146
548.234	126
554.536	142
560.832	130
567.12	130
573.403	134
579.679	120
585.948	112
592.211	104
598.466	104
604.715	136
610.958	156
617.194	318
623.424	480
629.647	136
635.864	110
642.074	88
648.276	78
654.473	78
660.664	78
666.847	82
673.025	80
679.195	74
685.36	82
691.517	74
697.669	88
703.814	92
709.953	92
716.085	88
722.21	128
728.33	132
734.443	132
740.549	172
746.65	188
752.743	206
758.831	222
764.912	224
770.986	202
777.055	204
783.117	236
789.173	310
795.222	336
801.265	280
807.302	194
813.333	152
819.357	128
825.376	114
831.387	106
837.392	152
843.392	144
849.386	138
855.372	128
861.353	120
867.328	136
873.296	118
879.258	108
885.214	110
891.164	108
897.108	108
903.046	134
908.977	144
914.903	110
920.822	108
926.735	96
932.643	88
938.543	100
944.439	88
950.328	104
956.21	102
962.088	122
967.958	118
973.824	138
979.682	202
985.534	268
991.382	786
997.222	1192
1003.06	2854
1008.89	450
1014.71	182
1020.53	222
1026.34	490
1032.14	886
1037.94	428
1043.73	210
1049.52	154
1055.3	148
1061.08	164
1066.85	168
1072.61	180
1078.37	166
1084.12	160
1089.87	166
1095.61	160
1101.34	166
1107.07	140
1112.8	116
1118.51	110
1124.22	94
1129.93	106
1135.63	108
1141.32	124
1147.01	176
1152.69	354
1158.37	350
1164.04	218
1169.71	212
1175.37	290
1181.02	522
1186.67	458
1192.31	468
1197.95	494
1203.58	440
1209.2	320
1214.82	232
1220.44	202
1226.05	200
1231.65	176
1237.25	170
1242.84	162
1248.42	168
1254	170
1259.58	164
1265.15	166
1270.71	158
1276.27	174
1281.82	176
1287.37	188
1292.91	192
1298.45	210
1303.98	210
1309.5	232
1315.02	226
1320.53	298
1326.04	288
1331.54	310
1337.04	286
1342.53	278
1348.02	256
1353.5	266
1358.98	270
1364.45	276
1369.91	278
1375.37	276
1380.82	280
1386.27	250
1391.71	250
1397.15	234
1402.58	242
1408.01	244
1413.43	230
1418.85	214
1424.26	216
1429.66	224
1435.06	252
1440.46	284
1445.85	338
1451.23	322
1456.61	270
1461.98	208
1467.35	198
1472.71	194
1478.07	182
1483.42	184
1488.77	184
1494.11	186
1499.45	178
1504.78	162
1510.11	168
1515.43	156
1520.74	178
1526.05	166
1531.36	158
1536.66	154
1541.95	162
1547.24	168
1552.52	168
1557.8	158
1563.08	166
1568.35	188
1573.61	198
1578.87	260
1584.12	406
1589.37	254
1594.61	314
1599.85	596
1605.08	550
1610.31	284
1615.53	198
1620.75	174
1625.96	154
1631.17	156
1636.37	152
1641.57	160
1646.76	148
1651.95	148
1657.13	130
1662.31	138
1667.48	124
1672.65	136
1677.81	124
1682.97	136
1688.12	128
1693.27	128
1698.41	124
1702.26	122