File: Jesse_Dataset_v2/Pure Raman/Polystyrene/785nm/ps-ppo-6jan25-1,0000-map3_Y01_X10.txt
204.377	838
211.048	906
217.712	934
224.369	882
231.019	734
237.661	548
244.297	372
250.924	308
257.546	284
264.16	268
270.766	256
277.365	228
283.958	202
290.543	192
297.121	172
303.693	150
310.256	168
316.813	164
323.362	168
329.905	176
336.441	160
342.969	162
349.491	144
356.006	150
362.513	144
369.014	138
375.508	164
381.994	164
388.473	186
394.947	194
401.412	230
407.871	232
414.323	194
420.768	158
427.206	154
433.637	136
440.062	138
446.479	122
452.89	114
459.293	98
465.691	102
472.081	104
478.463	106
484.84	102
491.21	100
497.573	98
503.929	108
510.279	104
516.621	108
522.957	122
529.287	116
535.609	134
541.925	152
548.234	152
554.536	132
560.832	136
567.12	126
573.403	140
579.679	116
585.948	112
592.211	112
598.466	114
604.715	132
610.958	152
617.194	330
623.424	476
629.647	144
635.864	108
642.074	86
648.276	72
654.473	80
660.664	80
666.847	78
673.025	74
679.195	78
685.36	82
691.517	82
697.669	86
703.814	98
709.953	86
716.085	90
722.21	136
728.33	138
734.443	138
740.549	180
746.65	188
752.743	208
758.831	236
764.912	232
770.986	202
777.055	194
783.117	248
789.173	316
795.222	360
801.265	274
807.302	192
813.333	160
819.357	124
825.376	112
831.387	116
837.392	136
843.392	154
849.386	140
855.372	138
861.353	130
867.328	130
873.296	130
879.258	122
885.214	108
891.164	116
897.108	118
903.046	142
908.977	134
914.903	110
920.822	98
926.735	92
932.643	100
938.543	94
944.439	92
950.328	100
956.21	92
962.088	124
967.958	118
973.824	136
979.682	176
985.534	276
991.382	792
997.222	1240
1003.06	2854
1008.89	458
1014.71	190
1020.53	224
1026.34	484
1032.14	884
1037.94	416
1043.73	214
1049.52	172
1055.3	154
1061.08	160
1066.85	166
1072.61	176
1078.37	166
1084.12	172
1089.87	154
1095.61	182
1101.34	164
1107.07	152
1112.8	138
1118.51	118
1124.22	118
1129.93	104
1135.63	106
1141.32	130
1147.01	182
1152.69	372
1158.37	342
1164.04	216
1169.71	206
1175.37	294
1181.02	496
1186.67	448
1192.31	486
1197.95	514
1203.58	422
1209.2	322
1214.82	232
1220.44	212
1226.05	196
1231.65	190
1237.25	168
1242.84	188
1248.42	166
1254	168
1259.58	164
1265.15	170
1270.71	176
1276.27	174
1281.82	176
1287.37	180
1292.91	192
1298.45	204
1303.98	228
1309.5	238
1315.02	244
1320.53	284
1326.04	294
1331.54	306
1337.04	296
1342.53	268
1348.02	264
1353.5	270
1358.98	276
1364.45	290
1369.91	274
1375.37	264
1380.82	256
1386.27	252
1391.71	234
1397.15	250
1402.58	236
1408.01	240
1413.43	232
1418.85	230
1424.26	216
1429.66	230
1435.06	268
1440.46	284
1445.85	330
1451.23	346
1456.61	256
1461.98	222
1467.35	196
1472.71	196
1478.07	190
1483.42	186
1488.77	188
1494.11	188
1499.45	178
1504.78	172
1510.11	164
1515.43	180
1520.74	178
1526.05	172
1531.36	170
1536.66	162
1541.95	172
1547.24	166
1552.52	162
1557.8	160
1563.08	170
1568.35	176
1573.61	206
1578.87	270
1584.12	394
1589.37	238
1594.61	312
1599.85	644
1605.08	544
1610.31	280
1615.53	198
1620.75	190
1625.96	170
1631.17	156
1636.37	156
1641.57	144
1646.76	142
1651.95	140
1657.13	132
1662.31	134
1667.48	140
1672.65	128
1677.81	132
1682.97	132
1688.12	128
1693.27	132
1698.41	136
1702.26	118