File: Jesse_Dataset_v2/Pure Raman/Polystyrene/785nm/ps-ppo-6jan25-1,0000-map3_Y01_X09.txt
204.377	840
211.048	882
217.712	908
224.369	878
231.019	740
237.661	556
244.297	390
250.924	296
257.546	262
264.16	260
270.766	242
277.365	240
283.958	212
290.543	190
297.121	178
303.693	164
310.256	160
316.813	172
323.362	168
329.905	162
336.441	170
342.969	158
349.491	148
356.006	142
362.513	146
369.014	160
375.508	154
381.994	158
388.473	180
394.947	200
401.412	202
407.871	238
414.323	204
420.768	170
427.206	156
433.637	138
440.062	140
446.479	118
452.89	114
459.293	112
465.691	98
472.081	102
478.463	100
484.84	104
491.21	98
497.573	94
503.929	110
510.279	106
516.621	102
522.957	118
529.287	114
535.609	132
541.925	156
548.234	136
554.536	148
560.832	128
567.12	134
573.403	138
579.679	114
585.948	122
592.211	104
598.466	110
604.715	136
610.958	140
617.194	322
623.424	466
629.647	138
635.864	100
642.074	88
648.276	80
654.473	80
660.664	74
666.847	64
673.025	72
679.195	78
685.36	74
691.517	78
697.669	94
703.814	104
709.953	94
716.085	100
722.21	132
728.33	132
734.443	122
740.549	180
746.65	174
752.743	202
758.831	234
764.912	222
770.986	194
777.055	202
783.117	234
789.173	294
795.222	358
801.265	290
807.302	196
813.333	156
819.357	126
825.376	112
831.387	106
837.392	130
843.392	162
849.386	136
855.372	128
861.353	128
867.328	116
873.296	132
879.258	120
885.214	106
891.164	112
897.108	114
903.046	140
908.977	142
914.903	112
920.822	92
926.735	98
932.643	100
938.543	104
944.439	98
950.328	96
956.21	102
962.088	118
967.958	120
973.824	140
979.682	180
985.534	282
991.382	774
997.222	1190
1003.06	2874
1008.89	444
1014.71	188
1020.53	218
1026.34	484
1032.14	872
1037.94	412
1043.73	218
1049.52	162
1055.3	156
1061.08	158
1066.85	186
1072.61	176
1078.37	170
1084.12	172
1089.87	160
1095.61	164
1101.34	170
1107.07	140
1112.8	144
1118.51	122
1124.22	114
1129.93	110
1135.63	118
1141.32	140
1147.01	174
1152.69	348
1158.37	342
1164.04	224
1169.71	222
1175.37	290
1181.02	534
1186.67	422
1192.31	462
1197.95	496
1203.58	424
1209.2	344
1214.82	246
1220.44	216
1226.05	192
1231.65	182
1237.25	176
1242.84	168
1248.42	160
1254	176
1259.58	168
1265.15	178
1270.71	178
1276.27	176
1281.82	178
1287.37	172
1292.91	176
1298.45	208
1303.98	218
1309.5	220
1315.02	254
1320.53	266
1326.04	282
1331.54	302
1337.04	276
1342.53	260
1348.02	256
1353.5	274
1358.98	274
1364.45	284
1369.91	292
1375.37	272
1380.82	266
1386.27	264
1391.71	252
1397.15	248
1402.58	224
1408.01	224
1413.43	238
1418.85	214
1424.26	232
1429.66	230
1435.06	254
1440.46	294
1445.85	330
1451.23	336
1456.61	268
1461.98	210
1467.35	182
1472.71	194
1478.07	186
1483.42	186
1488.77	184
1494.11	180
1499.45	170
1504.78	162
1510.11	170
1515.43	176
1520.74	164
1526.05	158
1531.36	158
1536.66	168
1541.95	160
1547.24	160
1552.52	176
1557.8	158
1563.08	154
1568.35	172
1573.61	194
1578.87	276
1584.12	410
1589.37	252
1594.61	292
1599.85	632
1605.08	576
1610.31	272
1615.53	208
1620.75	188
1625.96	162
1631.17	144
1636.37	146
1641.57	154
1646.76	154
1651.95	146
1657.13	128
1662.31	126
1667.48	138
1672.65	130
1677.81	126
1682.97	130
1688.12	124
1693.27	122
1698.41	114
1702.26	130