File: Jesse_Dataset_v2/Pure Raman/Polystyrene/785nm/ps-ppo-6jan25-1,0000-map3_Y02_X06.txt
204.377	844
211.048	860
217.712	898
224.369	876
231.019	696
237.661	576
244.297	382
250.924	310
257.546	272
264.16	256
270.766	252
277.365	220
283.958	214
290.543	192
297.121	174
303.693	168
310.256	166
316.813	176
323.362	162
329.905	158
336.441	172
342.969	148
349.491	142
356.006	136
362.513	136
369.014	150
375.508	164
381.994	170
388.473	172
394.947	190
401.412	218
407.871	230
414.323	186
420.768	178
427.206	146
433.637	140
440.062	132
446.479	128
452.89	120
459.293	100
465.691	108
472.081	96
478.463	98
484.84	90
491.21	90
497.573	96
503.929	112
510.279	110
516.621	108
522.957	96
529.287	120
535.609	144
541.925	136
548.234	148
554.536	134
560.832	132
567.12	130
573.403	142
579.679	110
585.948	100
592.211	102
598.466	106
604.715	128
610.958	138
617.194	308
623.424	478
629.647	144
635.864	104
642.074	80
648.276	82
654.473	76
660.664	74
666.847	68
673.025	78
679.195	70
685.36	78
691.517	82
697.669	88
703.814	100
709.953	86
716.085	92
722.21	132
728.33	124
734.443	132
740.549	166
746.65	190
752.743	204
758.831	244
764.912	208
770.986	196
777.055	194
783.117	248
789.173	302
795.222	350
801.265	286
807.302	194
813.333	162
819.357	128
825.376	108
831.387	118
837.392	148
843.392	170
849.386	130
855.372	128
861.353	122
867.328	122
873.296	128
879.258	118
885.214	122
891.164	108
897.108	116
903.046	138
908.977	150
914.903	116
920.822	96
926.735	90
932.643	104
938.543	102
944.439	98
950.328	106
956.21	106
962.088	118
967.958	130
973.824	146
979.682	176
985.534	266
991.382	744
997.222	1188
1003.06	2868
1008.89	432
1014.71	200
1020.53	226
1026.34	488
1032.14	910
1037.94	420
1043.73	202
1049.52	142
1055.3	144
1061.08	164
1066.85	166
1072.61	172
1078.37	178
1084.12	164
1089.87	154
1095.61	168
1101.34	170
1107.07	148
1112.8	134
1118.51	122
1124.22	98
1129.93	104
1135.63	118
1141.32	126
1147.01	182
1152.69	348
1158.37	344
1164.04	210
1169.71	196
1175.37	298
1181.02	512
1186.67	436
1192.31	480
1197.95	504
1203.58	448
1209.2	308
1214.82	228
1220.44	206
1226.05	188
1231.65	176
1237.25	172
1242.84	180
1248.42	168
1254	172
1259.58	152
1265.15	166
1270.71	164
1276.27	174
1281.82	174
1287.37	178
1292.91	186
1298.45	188
1303.98	216
1309.5	220
1315.02	250
1320.53	256
1326.04	306
1331.54	292
1337.04	280
1342.53	272
1348.02	254
1353.5	268
1358.98	262
1364.45	272
1369.91	280
1375.37	282
1380.82	262
1386.27	256
1391.71	238
1397.15	232
1402.58	218
1408.01	232
1413.43	236
1418.85	224
1424.26	222
1429.66	230
1435.06	264
1440.46	272
1445.85	320
1451.23	328
1456.61	264
1461.98	194
1467.35	192
1472.71	186
1478.07	172
1483.42	186
1488.77	184
1494.11	184
1499.45	178
1504.78	148
1510.11	162
1515.43	160
1520.74	156
1526.05	164
1531.36	164
1536.66	152
1541.95	154
1547.24	168
1552.52	162
1557.8	158
1563.08	156
1568.35	170
1573.61	204
1578.87	260
1584.12	408
1589.37	248
1594.61	274
1599.85	596
1605.08	536
1610.31	254
1615.53	178
1620.75	172
1625.96	166
1631.17	154
1636.37	148
1641.57	148
1646.76	158
1651.95	140
1657.13	140
1662.31	132
1667.48	142
1672.65	130
1677.81	118
1682.97	126
1688.12	130
1693.27	122
1698.41	116
1702.26	114