File: Jesse_Dataset_v2/Pure Raman/Polystyrene/785nm/ps-ppo-6jan25-1,0000-map3_Y08_X03.txt
204.377	844
211.048	874
217.712	914
224.369	898
231.019	738
237.661	550
244.297	382
250.924	294
257.546	282
264.16	238
270.766	226
277.365	236
283.958	216
290.543	194
297.121	174
303.693	166
310.256	164
316.813	174
323.362	174
329.905	166
336.441	158
342.969	170
349.491	162
356.006	146
362.513	154
369.014	152
375.508	156
381.994	164
388.473	174
394.947	204
401.412	198
407.871	234
414.323	174
420.768	170
427.206	146
433.637	148
440.062	134
446.479	130
452.89	120
459.293	104
465.691	104
472.081	96
478.463	108
484.84	92
491.21	100
497.573	94
503.929	114
510.279	96
516.621	108
522.957	116
529.287	128
535.609	148
541.925	146
548.234	136
554.536	138
560.832	136
567.12	142
573.403	134
579.679	114
585.948	108
592.211	112
598.466	104
604.715	124
610.958	134
617.194	306
623.424	460
629.647	138
635.864	96
642.074	80
648.276	76
654.473	70
660.664	74
666.847	74
673.025	74
679.195	72
685.36	68
691.517	76
697.669	90
703.814	98
709.953	96
716.085	92
722.21	130
728.33	132
734.443	126
740.549	184
746.65	188
752.743	202
758.831	234
764.912	216
770.986	224
777.055	192
783.117	238
789.173	292
795.222	326
801.265	292
807.302	186
813.333	162
819.357	120
825.376	116
831.387	116
837.392	134
843.392	152
849.386	132
855.372	134
861.353	126
867.328	118
873.296	114
879.258	114
885.214	112
891.164	104
897.108	128
903.046	138
908.977	128
914.903	120
920.822	96
926.735	100
932.643	102
938.543	106
944.439	96
950.328	92
956.21	100
962.088	110
967.958	126
973.824	124
979.682	172
985.534	276
991.382	762
997.222	1258
1003.06	2878
1008.89	446
1014.71	190
1020.53	224
1026.34	514
1032.14	906
1037.94	410
1043.73	202
1049.52	164
1055.3	144
1061.08	154
1066.85	164
1072.61	164
1078.37	166
1084.12	150
1089.87	154
1095.61	162
1101.34	170
1107.07	138
1112.8	124
1118.51	108
1124.22	102
1129.93	110
1135.63	110
1141.32	128
1147.01	162
1152.69	336
1158.37	346
1164.04	202
1169.71	206
1175.37	306
1181.02	504
1186.67	444
1192.31	496
1197.95	520
1203.58	436
1209.2	314
1214.82	236
1220.44	202
1226.05	190
1231.65	168
1237.25	156
1242.84	170
1248.42	162
1254	160
1259.58	166
1265.15	180
1270.71	166
1276.27	172
1281.82	178
1287.37	168
1292.91	190
1298.45	206
1303.98	200
1309.5	230
1315.02	236
1320.53	262
1326.04	296
1331.54	280
1337.04	276
1342.53	254
1348.02	266
1353.5	256
1358.98	278
1364.45	280
1369.91	274
1375.37	274
1380.82	266
1386.27	246
1391.71	236
1397.15	234
1402.58	234
1408.01	234
1413.43	210
1418.85	218
1424.26	210
1429.66	218
1435.06	240
1440.46	280
1445.85	326
1451.23	332
1456.61	264
1461.98	192
1467.35	196
1472.71	186
1478.07	186
1483.42	176
1488.77	176
1494.11	194
1499.45	162
1504.78	158
1510.11	164
1515.43	178
1520.74	158
1526.05	156
1531.36	154
1536.66	144
1541.95	164
1547.24	162
1552.52	154
1557.8	150
1563.08	168
1568.35	180
1573.61	198
1578.87	264
1584.12	406
1589.37	234
1594.61	316
1599.85	602
1605.08	560
1610.31	282
1615.53	188
1620.75	178
1625.96	156
1631.17	160
1636.37	144
1641.57	146
1646.76	162
1651.95	146
1657.13	142
1662.31	132
1667.48	136
1672.65	142
1677.81	118
1682.97	132
1688.12	128
1693.27	126
1698.41	124
1702.26	122