File: Jesse_Dataset_v2/Pure Raman/Polystyrene/785nm/ps-ppo-6jan25-1,0000-map3_Y08_X02.txt
204.377	798
211.048	864
217.712	878
224.369	854
231.019	718
237.661	534
244.297	376
250.924	308
257.546	266
264.16	248
270.766	256
277.365	230
283.958	202
290.543	186
297.121	162
303.693	156
310.256	158
316.813	178
323.362	160
329.905	158
336.441	160
342.969	168
349.491	148
356.006	146
362.513	152
369.014	142
375.508	156
381.994	162
388.473	174
394.947	182
401.412	212
407.871	228
414.323	192
420.768	168
427.206	148
433.637	138
440.062	134
446.479	118
452.89	116
459.293	110
465.691	96
472.081	94
478.463	100
484.84	88
491.21	98
497.573	108
503.929	108
510.279	102
516.621	102
522.957	110
529.287	116
535.609	122
541.925	144
548.234	144
554.536	132
560.832	140
567.12	128
573.403	140
579.679	114
585.948	106
592.211	106
598.466	104
604.715	142
610.958	144
617.194	312
623.424	452
629.647	144
635.864	114
642.074	96
648.276	82
654.473	78
660.664	72
666.847	80
673.025	74
679.195	72
685.36	72
691.517	80
697.669	76
703.814	96
709.953	94
716.085	88
722.21	132
728.33	134
734.443	132
740.549	178
746.65	188
752.743	192
758.831	230
764.912	206
770.986	198
777.055	206
783.117	238
789.173	312
795.222	350
801.265	288
807.302	190
813.333	168
819.357	132
825.376	108
831.387	118
837.392	140
843.392	150
849.386	138
855.372	128
861.353	118
867.328	126
873.296	124
879.258	120
885.214	104
891.164	108
897.108	116
903.046	138
908.977	136
914.903	112
920.822	96
926.735	88
932.643	92
938.543	104
944.439	94
950.328	104
956.21	106
962.088	122
967.958	128
973.824	142
979.682	184
985.534	268
991.382	770
997.222	1226
1003.06	2846
1008.89	424
1014.71	190
1020.53	216
1026.34	526
1032.14	932
1037.94	398
1043.73	188
1049.52	154
1055.3	150
1061.08	148
1066.85	160
1072.61	178
1078.37	166
1084.12	170
1089.87	170
1095.61	156
1101.34	168
1107.07	142
1112.8	122
1118.51	114
1124.22	104
1129.93	106
1135.63	106
1141.32	130
1147.01	174
1152.69	352
1158.37	346
1164.04	196
1169.71	218
1175.37	310
1181.02	546
1186.67	434
1192.31	476
1197.95	490
1203.58	452
1209.2	326
1214.82	216
1220.44	212
1226.05	204
1231.65	174
1237.25	170
1242.84	166
1248.42	160
1254	164
1259.58	166
1265.15	184
1270.71	170
1276.27	174
1281.82	164
1287.37	174
1292.91	186
1298.45	206
1303.98	212
1309.5	216
1315.02	240
1320.53	262
1326.04	298
1331.54	290
1337.04	282
1342.53	270
1348.02	264
1353.5	272
1358.98	270
1364.45	268
1369.91	274
1375.37	258
1380.82	264
1386.27	240
1391.71	236
1397.15	244
1402.58	218
1408.01	242
1413.43	214
1418.85	224
1424.26	220
1429.66	206
1435.06	254
1440.46	276
1445.85	300
1451.23	316
1456.61	262
1461.98	222
1467.35	192
1472.71	174
1478.07	168
1483.42	174
1488.77	166
1494.11	172
1499.45	184
1504.78	160
1510.11	168
1515.43	170
1520.74	162
1526.05	160
1531.36	160
1536.66	170
1541.95	156
1547.24	166
1552.52	172
1557.8	160
1563.08	160
1568.35	178
1573.61	202
1578.87	266
1584.12	388
1589.37	236
1594.61	300
1599.85	642
1605.08	558
1610.31	272
1615.53	206
1620.75	186
1625.96	162
1631.17	156
1636.37	156
1641.57	154
1646.76	152
1651.95	136
1657.13	130
1662.31	124
1667.48	128
1672.65	120
1677.81	116
1682.97	112
1688.12	114
1693.27	126
1698.41	122
1702.26	124