File: Jesse_Dataset_v2/Pure Raman/Polystyrene/785nm/ps-ppo-6jan25-1,0000-map3_Y04_X07.txt
204.377	832
211.048	894
217.712	914
224.369	888
231.019	720
237.661	528
244.297	382
250.924	324
257.546	292
264.16	268
270.766	238
277.365	234
283.958	208
290.543	192
297.121	178
303.693	166
310.256	174
316.813	156
323.362	166
329.905	176
336.441	164
342.969	160
349.491	142
356.006	154
362.513	158
369.014	152
375.508	168
381.994	170
388.473	168
394.947	202
401.412	212
407.871	232
414.323	182
420.768	164
427.206	148
433.637	140
440.062	142
446.479	126
452.89	110
459.293	106
465.691	106
472.081	108
478.463	104
484.84	98
491.21	106
497.573	96
503.929	106
510.279	106
516.621	102
522.957	106
529.287	114
535.609	148
541.925	144
548.234	134
554.536	142
560.832	140
567.12	128
573.403	134
579.679	118
585.948	114
592.211	94
598.466	118
604.715	136
610.958	148
617.194	324
623.424	458
629.647	138
635.864	106
642.074	78
648.276	82
654.473	76
660.664	70
666.847	80
673.025	70
679.195	74
685.36	76
691.517	76
697.669	78
703.814	96
709.953	88
716.085	96
722.21	142
728.33	126
734.443	140
740.549	186
746.65	180
752.743	198
758.831	232
764.912	218
770.986	196
777.055	182
783.117	234
789.173	312
795.222	352
801.265	290
807.302	190
813.333	172
819.357	126
825.376	104
831.387	122
837.392	146
843.392	168
849.386	130
855.372	122
861.353	118
867.328	122
873.296	120
879.258	114
885.214	120
891.164	120
897.108	124
903.046	142
908.977	148
914.903	112
920.822	100
926.735	98
932.643	98
938.543	96
944.439	102
950.328	100
956.21	104
962.088	120
967.958	132
973.824	132
979.682	186
985.534	272
991.382	766
997.222	1216
1003.06	2912
1008.89	444
1014.71	188
1020.53	220
1026.34	496
1032.14	876
1037.94	400
1043.73	204
1049.52	158
1055.3	158
1061.08	162
1066.85	168
1072.61	174
1078.37	162
1084.12	158
1089.87	174
1095.61	170
1101.34	154
1107.07	130
1112.8	126
1118.51	118
1124.22	96
1129.93	112
1135.63	104
1141.32	124
1147.01	166
1152.69	344
1158.37	348
1164.04	206
1169.71	222
1175.37	304
1181.02	518
1186.67	440
1192.31	478
1197.95	494
1203.58	434
1209.2	310
1214.82	236
1220.44	196
1226.05	198
1231.65	188
1237.25	168
1242.84	156
1248.42	166
1254	170
1259.58	176
1265.15	182
1270.71	160
1276.27	172
1281.82	178
1287.37	178
1292.91	188
1298.45	208
1303.98	222
1309.5	226
1315.02	248
1320.53	268
1326.04	284
1331.54	314
1337.04	280
1342.53	284
1348.02	274
1353.5	278
1358.98	254
1364.45	278
1369.91	270
1375.37	272
1380.82	266
1386.27	258
1391.71	240
1397.15	242
1402.58	228
1408.01	214
1413.43	232
1418.85	226
1424.26	210
1429.66	224
1435.06	238
1440.46	260
1445.85	324
1451.23	324
1456.61	260
1461.98	218
1467.35	198
1472.71	186
1478.07	186
1483.42	186
1488.77	180
1494.11	196
1499.45	172
1504.78	174
1510.11	172
1515.43	166
1520.74	166
1526.05	168
1531.36	174
1536.66	166
1541.95	158
1547.24	156
1552.52	164
1557.8	168
1563.08	168
1568.35	172
1573.61	188
1578.87	264
1584.12	402
1589.37	252
1594.61	318
1599.85	610
1605.08	534
1610.31	264
1615.53	200
1620.75	178
1625.96	174
1631.17	158
1636.37	146
1641.57	156
1646.76	150
1651.95	142
1657.13	132
1662.31	132
1667.48	130
1672.65	124
1677.81	122
1682.97	122
1688.12	124
1693.27	118
1698.41	118
1702.26	122