File: Jesse_Dataset_v2/Pure Raman/Polystyrene/785nm/ps-ppo-6jan25-1,0000-map3_Y03_X00.txt
204.377	834
211.048	888
217.712	932
224.369	854
231.019	712
237.661	534
244.297	378
250.924	302
257.546	272
264.16	266
270.766	236
277.365	226
283.958	218
290.543	202
297.121	178
303.693	176
310.256	176
316.813	158
323.362	160
329.905	166
336.441	154
342.969	154
349.491	160
356.006	148
362.513	150
369.014	146
375.508	158
381.994	164
388.473	172
394.947	184
401.412	210
407.871	228
414.323	182
420.768	166
427.206	144
433.637	142
440.062	132
446.479	128
452.89	116
459.293	120
465.691	112
472.081	98
478.463	92
484.84	102
491.21	100
497.573	102
503.929	106
510.279	90
516.621	106
522.957	108
529.287	124
535.609	136
541.925	146
548.234	140
554.536	128
560.832	140
567.12	136
573.403	130
579.679	116
585.948	114
592.211	104
598.466	118
604.715	130
610.958	136
617.194	312
623.424	478
629.647	142
635.864	100
642.074	94
648.276	78
654.473	76
660.664	74
666.847	78
673.025	78
679.195	74
685.36	76
691.517	80
697.669	92
703.814	94
709.953	94
716.085	92
722.21	114
728.33	126
734.443	138
740.549	186
746.65	188
752.743	206
758.831	236
764.912	218
770.986	198
777.055	184
783.117	244
789.173	312
795.222	330
801.265	264
807.302	182
813.333	160
819.357	122
825.376	108
831.387	114
837.392	138
843.392	158
849.386	130
855.372	122
861.353	126
867.328	124
873.296	116
879.258	118
885.214	106
891.164	108
897.108	120
903.046	138
908.977	138
914.903	112
920.822	104
926.735	94
932.643	94
938.543	96
944.439	102
950.328	96
956.21	96
962.088	118
967.958	122
973.824	134
979.682	178
985.534	270
991.382	738
997.222	1192
1003.06	2876
1008.89	432
1014.71	194
1020.53	212
1026.34	466
1032.14	878
1037.94	406
1043.73	202
1049.52	154
1055.3	156
1061.08	160
1066.85	158
1072.61	168
1078.37	174
1084.12	170
1089.87	160
1095.61	164
1101.34	166
1107.07	144
1112.8	114
1118.51	114
1124.22	116
1129.93	98
1135.63	114
1141.32	130
1147.01	152
1152.69	354
1158.37	320
1164.04	212
1169.71	196
1175.37	274
1181.02	532
1186.67	440
1192.31	452
1197.95	492
1203.58	450
1209.2	318
1214.82	230
1220.44	194
1226.05	198
1231.65	180
1237.25	176
1242.84	162
1248.42	162
1254	174
1259.58	166
1265.15	166
1270.71	174
1276.27	168
1281.82	170
1287.37	166
1292.91	192
1298.45	192
1303.98	210
1309.5	228
1315.02	224
1320.53	258
1326.04	280
1331.54	290
1337.04	284
1342.53	260
1348.02	248
1353.5	258
1358.98	248
1364.45	274
1369.91	260
1375.37	260
1380.82	262
1386.27	234
1391.71	222
1397.15	218
1402.58	214
1408.01	216
1413.43	222
1418.85	212
1424.26	206
1429.66	210
1435.06	232
1440.46	278
1445.85	310
1451.23	296
1456.61	270
1461.98	198
1467.35	200
1472.71	178
1478.07	186
1483.42	164
1488.77	168
1494.11	188
1499.45	160
1504.78	160
1510.11	150
1515.43	154
1520.74	162
1526.05	158
1531.36	150
1536.66	148
1541.95	164
1547.24	160
1552.52	154
1557.8	158
1563.08	156
1568.35	172
1573.61	198
1578.87	252
1584.12	392
1589.37	236
1594.61	290
1599.85	610
1605.08	532
1610.31	282
1615.53	194
1620.75	162
1625.96	160
1631.17	160
1636.37	144
1641.57	144
1646.76	138
1651.95	138
1657.13	132
1662.31	124
1667.48	134
1672.65	118
1677.81	128
1682.97	116
1688.12	112
1693.27	124
1698.41	114
1702.26	110