File: Jesse_Dataset_v2/Pure Raman/Polystyrene/785nm/ps-ppo-6jan25-1,0000-map3_Y05_X08.txt
204.377	828
211.048	900
217.712	958
224.369	882
231.019	738
237.661	538
244.297	390
250.924	318
257.546	290
264.16	290
270.766	246
277.365	248
283.958	216
290.543	184
297.121	170
303.693	170
310.256	182
316.813	176
323.362	172
329.905	176
336.441	172
342.969	168
349.491	150
356.006	156
362.513	154
369.014	160
375.508	164
381.994	188
388.473	188
394.947	202
401.412	204
407.871	212
414.323	198
420.768	172
427.206	154
433.637	142
440.062	146
446.479	130
452.89	118
459.293	114
465.691	116
472.081	112
478.463	100
484.84	102
491.21	108
497.573	106
503.929	116
510.279	110
516.621	116
522.957	120
529.287	124
535.609	156
541.925	150
548.234	146
554.536	142
560.832	146
567.12	138
573.403	148
579.679	118
585.948	120
592.211	112
598.466	118
604.715	140
610.958	144
617.194	344
623.424	458
629.647	156
635.864	112
642.074	96
648.276	80
654.473	88
660.664	82
666.847	84
673.025	70
679.195	80
685.36	78
691.517	84
697.669	90
703.814	112
709.953	94
716.085	98
722.21	144
728.33	132
734.443	130
740.549	180
746.65	190
752.743	222
758.831	240
764.912	224
770.986	204
777.055	214
783.117	246
789.173	306
795.222	362
801.265	282
807.302	196
813.333	180
819.357	126
825.376	120
831.387	118
837.392	146
843.392	160
849.386	134
855.372	126
861.353	132
867.328	132
873.296	124
879.258	126
885.214	110
891.164	118
897.108	128
903.046	152
908.977	146
914.903	126
920.822	110
926.735	106
932.643	100
938.543	106
944.439	120
950.328	100
956.21	94
962.088	132
967.958	128
973.824	150
979.682	174
985.534	286
991.382	804
997.222	1250
1003.06	2866
1008.89	440
1014.71	210
1020.53	218
1026.34	486
1032.14	894
1037.94	416
1043.73	214
1049.52	166
1055.3	156
1061.08	170
1066.85	164
1072.61	178
1078.37	178
1084.12	164
1089.87	168
1095.61	168
1101.34	160
1107.07	142
1112.8	136
1118.51	126
1124.22	116
1129.93	114
1135.63	118
1141.32	134
1147.01	180
1152.69	358
1158.37	348
1164.04	200
1169.71	210
1175.37	294
1181.02	532
1186.67	450
1192.31	482
1197.95	502
1203.58	446
1209.2	314
1214.82	234
1220.44	222
1226.05	196
1231.65	186
1237.25	162
1242.84	174
1248.42	166
1254	168
1259.58	172
1265.15	168
1270.71	180
1276.27	184
1281.82	180
1287.37	184
1292.91	192
1298.45	204
1303.98	228
1309.5	242
1315.02	232
1320.53	280
1326.04	294
1331.54	284
1337.04	292
1342.53	264
1348.02	282
1353.5	272
1358.98	268
1364.45	276
1369.91	282
1375.37	278
1380.82	268
1386.27	250
1391.71	248
1397.15	242
1402.58	234
1408.01	230
1413.43	248
1418.85	230
1424.26	222
1429.66	236
1435.06	234
1440.46	298
1445.85	320
1451.23	322
1456.61	272
1461.98	218
1467.35	194
1472.71	194
1478.07	182
1483.42	180
1488.77	184
1494.11	192
1499.45	184
1504.78	172
1510.11	188
1515.43	184
1520.74	176
1526.05	170
1531.36	172
1536.66	168
1541.95	168
1547.24	178
1552.52	164
1557.8	168
1563.08	172
1568.35	182
1573.61	190
1578.87	282
1584.12	418
1589.37	266
1594.61	306
1599.85	618
1605.08	534
1610.31	280
1615.53	200
1620.75	166
1625.96	168
1631.17	146
1636.37	162
1641.57	158
1646.76	152
1651.95	154
1657.13	150
1662.31	136
1667.48	138
1672.65	130
1677.81	136
1682.97	132
1688.12	126
1693.27	140
1698.41	130
1702.26	128