File: Jesse_Dataset_v2/Pure Raman/Polystyrene/785nm/ps-ppo-6jan25-1,0000-map3_Y09_X04.txt
204.377	840
211.048	888
217.712	920
224.369	902
231.019	712
237.661	534
244.297	350
250.924	332
257.546	266
264.16	256
270.766	248
277.365	224
283.958	218
290.543	194
297.121	160
303.693	162
310.256	168
316.813	174
323.362	172
329.905	164
336.441	148
342.969	162
349.491	154
356.006	148
362.513	150
369.014	152
375.508	152
381.994	178
388.473	174
394.947	172
401.412	210
407.871	226
414.323	188
420.768	170
427.206	154
433.637	144
440.062	144
446.479	126
452.89	118
459.293	110
465.691	108
472.081	114
478.463	102
484.84	116
491.21	96
497.573	102
503.929	116
510.279	108
516.621	100
522.957	108
529.287	116
535.609	134
541.925	160
548.234	144
554.536	126
560.832	128
567.12	128
573.403	148
579.679	120
585.948	100
592.211	112
598.466	110
604.715	132
610.958	138
617.194	322
623.424	454
629.647	148
635.864	108
642.074	88
648.276	80
654.473	80
660.664	68
666.847	80
673.025	74
679.195	76
685.36	76
691.517	82
697.669	88
703.814	94
709.953	90
716.085	98
722.21	132
728.33	122
734.443	130
740.549	180
746.65	172
752.743	212
758.831	240
764.912	228
770.986	196
777.055	194
783.117	242
789.173	292
795.222	332
801.265	284
807.302	208
813.333	150
819.357	126
825.376	102
831.387	118
837.392	152
843.392	158
849.386	128
855.372	128
861.353	132
867.328	112
873.296	114
879.258	116
885.214	116
891.164	116
897.108	110
903.046	148
908.977	142
914.903	102
920.822	98
926.735	96
932.643	104
938.543	108
944.439	90
950.328	108
956.21	104
962.088	122
967.958	136
973.824	146
979.682	180
985.534	274
991.382	788
997.222	1266
1003.06	2850
1008.89	440
1014.71	196
1020.53	216
1026.34	528
1032.14	884
1037.94	410
1043.73	204
1049.52	168
1055.3	158
1061.08	158
1066.85	172
1072.61	178
1078.37	172
1084.12	148
1089.87	164
1095.61	170
1101.34	162
1107.07	142
1112.8	134
1118.51	114
1124.22	110
1129.93	106
1135.63	110
1141.32	118
1147.01	176
1152.69	346
1158.37	344
1164.04	228
1169.71	224
1175.37	290
1181.02	514
1186.67	434
1192.31	470
1197.95	490
1203.58	456
1209.2	306
1214.82	226
1220.44	200
1226.05	218
1231.65	164
1237.25	170
1242.84	160
1248.42	172
1254	166
1259.58	172
1265.15	178
1270.71	166
1276.27	172
1281.82	166
1287.37	176
1292.91	192
1298.45	210
1303.98	222
1309.5	216
1315.02	250
1320.53	280
1326.04	288
1331.54	286
1337.04	288
1342.53	268
1348.02	266
1353.5	266
1358.98	274
1364.45	292
1369.91	268
1375.37	288
1380.82	270
1386.27	246
1391.71	226
1397.15	236
1402.58	218
1408.01	228
1413.43	238
1418.85	212
1424.26	212
1429.66	212
1435.06	246
1440.46	284
1445.85	304
1451.23	328
1456.61	264
1461.98	218
1467.35	182
1472.71	184
1478.07	188
1483.42	180
1488.77	174
1494.11	184
1499.45	168
1504.78	154
1510.11	158
1515.43	164
1520.74	172
1526.05	168
1531.36	172
1536.66	174
1541.95	152
1547.24	160
1552.52	150
1557.8	160
1563.08	164
1568.35	166
1573.61	196
1578.87	284
1584.12	410
1589.37	266
1594.61	314
1599.85	596
1605.08	564
1610.31	272
1615.53	192
1620.75	170
1625.96	158
1631.17	148
1636.37	158
1641.57	150
1646.76	152
1651.95	150
1657.13	138
1662.31	136
1667.48	130
1672.65	128
1677.81	126
1682.97	130
1688.12	122
1693.27	126
1698.41	114
1702.26	118