File: Jesse_Dataset_v2/Pure Raman/Polystyrene/785nm/ps-ppo-6jan25-1,0000-map3_Y04_X00.txt
204.377	808
211.048	906
217.712	930
224.369	886
231.019	704
237.661	560
244.297	378
250.924	286
257.546	292
264.16	254
270.766	236
277.365	226
283.958	218
290.543	174
297.121	176
303.693	174
310.256	166
316.813	158
323.362	162
329.905	166
336.441	166
342.969	144
349.491	148
356.006	136
362.513	152
369.014	140
375.508	146
381.994	168
388.473	168
394.947	198
401.412	216
407.871	232
414.323	186
420.768	174
427.206	138
433.637	142
440.062	130
446.479	120
452.89	120
459.293	112
465.691	100
472.081	100
478.463	104
484.84	98
491.21	100
497.573	94
503.929	116
510.279	92
516.621	102
522.957	110
529.287	122
535.609	132
541.925	142
548.234	140
554.536	130
560.832	134
567.12	128
573.403	130
579.679	114
585.948	108
592.211	108
598.466	116
604.715	122
610.958	152
617.194	326
623.424	464
629.647	138
635.864	102
642.074	84
648.276	82
654.473	78
660.664	82
666.847	72
673.025	74
679.195	68
685.36	76
691.517	72
697.669	82
703.814	96
709.953	94
716.085	92
722.21	130
728.33	128
734.443	138
740.549	182
746.65	182
752.743	208
758.831	220
764.912	210
770.986	192
777.055	208
783.117	234
789.173	310
795.222	342
801.265	264
807.302	200
813.333	148
819.357	118
825.376	118
831.387	118
837.392	146
843.392	154
849.386	140
855.372	118
861.353	128
867.328	112
873.296	120
879.258	114
885.214	108
891.164	106
897.108	112
903.046	134
908.977	136
914.903	118
920.822	102
926.735	98
932.643	94
938.543	90
944.439	100
950.328	96
956.21	100
962.088	120
967.958	142
973.824	140
979.682	180
985.534	274
991.382	740
997.222	1222
1003.06	2916
1008.89	450
1014.71	170
1020.53	204
1026.34	500
1032.14	906
1037.94	416
1043.73	198
1049.52	150
1055.3	154
1061.08	152
1066.85	166
1072.61	170
1078.37	170
1084.12	164
1089.87	156
1095.61	168
1101.34	160
1107.07	142
1112.8	120
1118.51	108
1124.22	110
1129.93	104
1135.63	114
1141.32	132
1147.01	180
1152.69	352
1158.37	354
1164.04	214
1169.71	210
1175.37	274
1181.02	506
1186.67	414
1192.31	458
1197.95	482
1203.58	444
1209.2	294
1214.82	234
1220.44	192
1226.05	192
1231.65	174
1237.25	176
1242.84	166
1248.42	166
1254	156
1259.58	174
1265.15	164
1270.71	162
1276.27	162
1281.82	166
1287.37	170
1292.91	186
1298.45	206
1303.98	212
1309.5	214
1315.02	230
1320.53	272
1326.04	284
1331.54	306
1337.04	266
1342.53	250
1348.02	248
1353.5	260
1358.98	242
1364.45	264
1369.91	270
1375.37	274
1380.82	250
1386.27	230
1391.71	228
1397.15	210
1402.58	224
1408.01	224
1413.43	212
1418.85	202
1424.26	208
1429.66	216
1435.06	238
1440.46	270
1445.85	326
1451.23	312
1456.61	254
1461.98	204
1467.35	180
1472.71	180
1478.07	172
1483.42	180
1488.77	176
1494.11	184
1499.45	162
1504.78	168
1510.11	146
1515.43	150
1520.74	146
1526.05	152
1531.36	150
1536.66	160
1541.95	156
1547.24	152
1552.52	156
1557.8	148
1563.08	160
1568.35	162
1573.61	174
1578.87	258
1584.12	386
1589.37	246
1594.61	312
1599.85	594
1605.08	548
1610.31	268
1615.53	188
1620.75	166
1625.96	152
1631.17	148
1636.37	132
1641.57	148
1646.76	142
1651.95	146
1657.13	136
1662.31	122
1667.48	130
1672.65	122
1677.81	130
1682.97	124
1688.12	114
1693.27	114
1698.41	122
1702.26	114