File: Jesse_Dataset_v2/Pure Raman/Polystyrene/785nm/ps-ppo-6jan25-1,0000-map3_Y10_X02.txt
204.377	856
211.048	888
217.712	898
224.369	882
231.019	724
237.661	538
244.297	364
250.924	310
257.546	280
264.16	272
270.766	254
277.365	224
283.958	212
290.543	202
297.121	182
303.693	156
310.256	158
316.813	168
323.362	172
329.905	172
336.441	176
342.969	166
349.491	144
356.006	152
362.513	144
369.014	148
375.508	160
381.994	166
388.473	178
394.947	178
401.412	202
407.871	230
414.323	180
420.768	164
427.206	162
433.637	142
440.062	142
446.479	132
452.89	108
459.293	108
465.691	106
472.081	106
478.463	96
484.84	104
491.21	106
497.573	110
503.929	116
510.279	96
516.621	108
522.957	110
529.287	114
535.609	132
541.925	144
548.234	138
554.536	124
560.832	136
567.12	134
573.403	144
579.679	122
585.948	116
592.211	110
598.466	112
604.715	130
610.958	144
617.194	312
623.424	454
629.647	150
635.864	114
642.074	84
648.276	82
654.473	76
660.664	84
666.847	74
673.025	74
679.195	70
685.36	74
691.517	76
697.669	90
703.814	98
709.953	92
716.085	92
722.21	138
728.33	124
734.443	130
740.549	184
746.65	182
752.743	218
758.831	226
764.912	228
770.986	186
777.055	196
783.117	236
789.173	306
795.222	346
801.265	286
807.302	198
813.333	162
819.357	128
825.376	106
831.387	108
837.392	142
843.392	156
849.386	140
855.372	130
861.353	118
867.328	118
873.296	122
879.258	124
885.214	106
891.164	122
897.108	120
903.046	134
908.977	148
914.903	120
920.822	102
926.735	94
932.643	88
938.543	108
944.439	94
950.328	100
956.21	106
962.088	122
967.958	118
973.824	140
979.682	176
985.534	280
991.382	758
997.222	1278
1003.06	2842
1008.89	446
1014.71	192
1020.53	234
1026.34	506
1032.14	882
1037.94	418
1043.73	202
1049.52	148
1055.3	140
1061.08	156
1066.85	158
1072.61	170
1078.37	164
1084.12	174
1089.87	160
1095.61	178
1101.34	156
1107.07	144
1112.8	132
1118.51	112
1124.22	114
1129.93	110
1135.63	114
1141.32	134
1147.01	160
1152.69	360
1158.37	348
1164.04	202
1169.71	210
1175.37	300
1181.02	516
1186.67	418
1192.31	494
1197.95	492
1203.58	444
1209.2	314
1214.82	232
1220.44	204
1226.05	190
1231.65	180
1237.25	168
1242.84	172
1248.42	172
1254	166
1259.58	170
1265.15	174
1270.71	162
1276.27	164
1281.82	178
1287.37	186
1292.91	194
1298.45	190
1303.98	222
1309.5	222
1315.02	230
1320.53	272
1326.04	278
1331.54	298
1337.04	292
1342.53	270
1348.02	256
1353.5	264
1358.98	260
1364.45	288
1369.91	256
1375.37	288
1380.82	260
1386.27	240
1391.71	232
1397.15	222
1402.58	236
1408.01	216
1413.43	206
1418.85	218
1424.26	206
1429.66	230
1435.06	236
1440.46	268
1445.85	318
1451.23	328
1456.61	262
1461.98	204
1467.35	190
1472.71	194
1478.07	182
1483.42	172
1488.77	170
1494.11	166
1499.45	176
1504.78	162
1510.11	166
1515.43	164
1520.74	168
1526.05	158
1531.36	148
1536.66	164
1541.95	164
1547.24	160
1552.52	162
1557.8	162
1563.08	160
1568.35	174
1573.61	200
1578.87	270
1584.12	392
1589.37	232
1594.61	326
1599.85	646
1605.08	526
1610.31	266
1615.53	196
1620.75	170
1625.96	164
1631.17	144
1636.37	152
1641.57	152
1646.76	156
1651.95	150
1657.13	140
1662.31	140
1667.48	144
1672.65	124
1677.81	122
1682.97	108
1688.12	128
1693.27	130
1698.41	126
1702.26	122