File: Jesse_Dataset_v2/Pure Raman/Polystyrene/785nm/ps-ppo-6jan25-1,0000-map3_Y00_X01.txt
204.377	828
211.048	878
217.712	922
224.369	850
231.019	734
237.661	538
244.297	388
250.924	288
257.546	278
264.16	260
270.766	254
277.365	244
283.958	212
290.543	178
297.121	172
303.693	170
310.256	176
316.813	170
323.362	176
329.905	162
336.441	170
342.969	152
349.491	162
356.006	148
362.513	142
369.014	148
375.508	150
381.994	166
388.473	188
394.947	198
401.412	222
407.871	230
414.323	182
420.768	166
427.206	164
433.637	144
440.062	140
446.479	138
452.89	124
459.293	108
465.691	98
472.081	108
478.463	104
484.84	102
491.21	98
497.573	106
503.929	110
510.279	108
516.621	108
522.957	114
529.287	120
535.609	124
541.925	152
548.234	140
554.536	128
560.832	130
567.12	140
573.403	148
579.679	120
585.948	104
592.211	112
598.466	116
604.715	128
610.958	138
617.194	294
623.424	450
629.647	130
635.864	104
642.074	88
648.276	82
654.473	84
660.664	72
666.847	74
673.025	80
679.195	80
685.36	68
691.517	78
697.669	76
703.814	100
709.953	90
716.085	90
722.21	132
728.33	132
734.443	128
740.549	178
746.65	174
752.743	196
758.831	228
764.912	220
770.986	192
777.055	202
783.117	242
789.173	308
795.222	350
801.265	280
807.302	190
813.333	158
819.357	136
825.376	114
831.387	120
837.392	144
843.392	162
849.386	124
855.372	122
861.353	114
867.328	128
873.296	128
879.258	110
885.214	114
891.164	114
897.108	122
903.046	144
908.977	136
914.903	120
920.822	102
926.735	100
932.643	98
938.543	94
944.439	102
950.328	102
956.21	110
962.088	120
967.958	124
973.824	136
979.682	182
985.534	258
991.382	746
997.222	1164
1003.06	2898
1008.89	450
1014.71	188
1020.53	224
1026.34	504
1032.14	906
1037.94	418
1043.73	212
1049.52	160
1055.3	140
1061.08	158
1066.85	170
1072.61	178
1078.37	170
1084.12	154
1089.87	162
1095.61	166
1101.34	164
1107.07	134
1112.8	132
1118.51	120
1124.22	106
1129.93	100
1135.63	106
1141.32	118
1147.01	166
1152.69	342
1158.37	342
1164.04	214
1169.71	206
1175.37	292
1181.02	518
1186.67	434
1192.31	472
1197.95	446
1203.58	456
1209.2	306
1214.82	232
1220.44	210
1226.05	182
1231.65	182
1237.25	162
1242.84	152
1248.42	162
1254	166
1259.58	172
1265.15	160
1270.71	168
1276.27	164
1281.82	160
1287.37	162
1292.91	192
1298.45	206
1303.98	208
1309.5	232
1315.02	250
1320.53	260
1326.04	286
1331.54	288
1337.04	284
1342.53	260
1348.02	266
1353.5	248
1358.98	266
1364.45	252
1369.91	272
1375.37	250
1380.82	256
1386.27	222
1391.71	224
1397.15	222
1402.58	216
1408.01	218
1413.43	220
1418.85	222
1424.26	212
1429.66	210
1435.06	238
1440.46	270
1445.85	312
1451.23	318
1456.61	268
1461.98	216
1467.35	194
1472.71	176
1478.07	180
1483.42	174
1488.77	172
1494.11	180
1499.45	164
1504.78	172
1510.11	166
1515.43	168
1520.74	148
1526.05	148
1531.36	166
1536.66	150
1541.95	148
1547.24	156
1552.52	156
1557.8	162
1563.08	156
1568.35	166
1573.61	182
1578.87	268
1584.12	388
1589.37	238
1594.61	278
1599.85	602
1605.08	538
1610.31	266
1615.53	190
1620.75	168
1625.96	152
1631.17	144
1636.37	142
1641.57	144
1646.76	140
1651.95	124
1657.13	134
1662.31	118
1667.48	134
1672.65	116
1677.81	122
1682.97	126
1688.12	124
1693.27	124
1698.41	120
1702.26	124