File: Jesse_Dataset_v2/Pure Raman/Polystyrene/785nm/ps-ppo-6jan25-1,0000-map3_Y00_X03.txt
204.377	798
211.048	876
217.712	884
224.369	870
231.019	714
237.661	526
244.297	384
250.924	310
257.546	264
264.16	258
270.766	240
277.365	216
283.958	208
290.543	188
297.121	170
303.693	160
310.256	180
316.813	168
323.362	166
329.905	166
336.441	178
342.969	154
349.491	138
356.006	154
362.513	138
369.014	142
375.508	164
381.994	156
388.473	168
394.947	174
401.412	212
407.871	242
414.323	192
420.768	152
427.206	148
433.637	136
440.062	136
446.479	124
452.89	122
459.293	106
465.691	100
472.081	114
478.463	94
484.84	96
491.21	92
497.573	98
503.929	106
510.279	100
516.621	104
522.957	106
529.287	112
535.609	142
541.925	144
548.234	136
554.536	130
560.832	126
567.12	134
573.403	130
579.679	114
585.948	110
592.211	102
598.466	100
604.715	122
610.958	142
617.194	330
623.424	470
629.647	138
635.864	106
642.074	86
648.276	88
654.473	78
660.664	74
666.847	70
673.025	72
679.195	76
685.36	70
691.517	80
697.669	82
703.814	94
709.953	92
716.085	96
722.21	130
728.33	126
734.443	130
740.549	172
746.65	186
752.743	216
758.831	226
764.912	212
770.986	206
777.055	186
783.117	238
789.173	280
795.222	344
801.265	268
807.302	184
813.333	152
819.357	126
825.376	112
831.387	110
837.392	144
843.392	154
849.386	128
855.372	120
861.353	124
867.328	118
873.296	120
879.258	114
885.214	118
891.164	106
897.108	120
903.046	136
908.977	134
914.903	124
920.822	100
926.735	96
932.643	88
938.543	86
944.439	102
950.328	102
956.21	96
962.088	126
967.958	122
973.824	136
979.682	186
985.534	274
991.382	748
997.222	1180
1003.06	2826
1008.89	472
1014.71	180
1020.53	214
1026.34	470
1032.14	876
1037.94	436
1043.73	206
1049.52	164
1055.3	148
1061.08	158
1066.85	176
1072.61	176
1078.37	160
1084.12	166
1089.87	178
1095.61	164
1101.34	168
1107.07	138
1112.8	136
1118.51	116
1124.22	84
1129.93	106
1135.63	108
1141.32	134
1147.01	166
1152.69	352
1158.37	360
1164.04	210
1169.71	210
1175.37	304
1181.02	522
1186.67	430
1192.31	468
1197.95	514
1203.58	432
1209.2	328
1214.82	232
1220.44	206
1226.05	196
1231.65	182
1237.25	162
1242.84	162
1248.42	176
1254	160
1259.58	156
1265.15	156
1270.71	168
1276.27	176
1281.82	158
1287.37	182
1292.91	204
1298.45	196
1303.98	226
1309.5	214
1315.02	256
1320.53	262
1326.04	262
1331.54	308
1337.04	282
1342.53	258
1348.02	244
1353.5	264
1358.98	250
1364.45	270
1369.91	264
1375.37	268
1380.82	258
1386.27	228
1391.71	218
1397.15	236
1402.58	204
1408.01	224
1413.43	206
1418.85	206
1424.26	218
1429.66	222
1435.06	252
1440.46	268
1445.85	336
1451.23	322
1456.61	266
1461.98	196
1467.35	186
1472.71	186
1478.07	170
1483.42	170
1488.77	168
1494.11	186
1499.45	160
1504.78	172
1510.11	172
1515.43	156
1520.74	160
1526.05	160
1531.36	164
1536.66	164
1541.95	162
1547.24	162
1552.52	154
1557.8	158
1563.08	170
1568.35	172
1573.61	184
1578.87	260
1584.12	390
1589.37	262
1594.61	318
1599.85	590
1605.08	558
1610.31	274
1615.53	190
1620.75	162
1625.96	160
1631.17	144
1636.37	150
1641.57	150
1646.76	148
1651.95	140
1657.13	140
1662.31	132
1667.48	130
1672.65	136
1677.81	122
1682.97	122
1688.12	124
1693.27	124
1698.41	118
1702.26	116