File: Jesse_Dataset_v2/Pure Raman/Polystyrene/785nm/ps-ppo-6jan25-1,0000-map3_Y06_X07.txt
204.377	832
211.048	862
217.712	908
224.369	854
231.019	740
237.661	562
244.297	370
250.924	300
257.546	264
264.16	262
270.766	256
277.365	224
283.958	216
290.543	186
297.121	168
303.693	180
310.256	162
316.813	170
323.362	166
329.905	172
336.441	170
342.969	160
349.491	158
356.006	150
362.513	146
369.014	160
375.508	152
381.994	180
388.473	178
394.947	186
401.412	214
407.871	228
414.323	212
420.768	164
427.206	156
433.637	144
440.062	136
446.479	138
452.89	122
459.293	102
465.691	112
472.081	104
478.463	94
484.84	100
491.21	106
497.573	114
503.929	106
510.279	98
516.621	100
522.957	120
529.287	110
535.609	144
541.925	142
548.234	142
554.536	142
560.832	142
567.12	126
573.403	148
579.679	120
585.948	110
592.211	102
598.466	118
604.715	132
610.958	152
617.194	338
623.424	446
629.647	146
635.864	112
642.074	100
648.276	86
654.473	80
660.664	78
666.847	74
673.025	80
679.195	88
685.36	78
691.517	80
697.669	82
703.814	106
709.953	90
716.085	100
722.21	138
728.33	132
734.443	138
740.549	180
746.65	178
752.743	206
758.831	234
764.912	212
770.986	206
777.055	194
783.117	242
789.173	306
795.222	348
801.265	274
807.302	184
813.333	156
819.357	124
825.376	112
831.387	116
837.392	140
843.392	156
849.386	128
855.372	128
861.353	126
867.328	132
873.296	128
879.258	124
885.214	120
891.164	114
897.108	120
903.046	138
908.977	130
914.903	112
920.822	102
926.735	92
932.643	98
938.543	94
944.439	106
950.328	98
956.21	100
962.088	120
967.958	130
973.824	134
979.682	176
985.534	272
991.382	802
997.222	1250
1003.06	2854
1008.89	454
1014.71	194
1020.53	210
1026.34	500
1032.14	898
1037.94	416
1043.73	212
1049.52	168
1055.3	142
1061.08	154
1066.85	166
1072.61	172
1078.37	178
1084.12	150
1089.87	158
1095.61	162
1101.34	166
1107.07	144
1112.8	130
1118.51	112
1124.22	112
1129.93	102
1135.63	116
1141.32	136
1147.01	180
1152.69	366
1158.37	346
1164.04	218
1169.71	224
1175.37	324
1181.02	514
1186.67	466
1192.31	484
1197.95	500
1203.58	436
1209.2	308
1214.82	226
1220.44	212
1226.05	186
1231.65	192
1237.25	176
1242.84	172
1248.42	156
1254	162
1259.58	172
1265.15	168
1270.71	178
1276.27	176
1281.82	186
1287.37	178
1292.91	204
1298.45	200
1303.98	226
1309.5	236
1315.02	252
1320.53	268
1326.04	298
1331.54	304
1337.04	286
1342.53	288
1348.02	272
1353.5	264
1358.98	288
1364.45	280
1369.91	288
1375.37	282
1380.82	276
1386.27	256
1391.71	256
1397.15	234
1402.58	218
1408.01	230
1413.43	226
1418.85	218
1424.26	234
1429.66	224
1435.06	254
1440.46	288
1445.85	344
1451.23	344
1456.61	276
1461.98	222
1467.35	192
1472.71	186
1478.07	194
1483.42	178
1488.77	174
1494.11	194
1499.45	170
1504.78	166
1510.11	164
1515.43	178
1520.74	170
1526.05	168
1531.36	166
1536.66	174
1541.95	162
1547.24	166
1552.52	160
1557.8	172
1563.08	176
1568.35	172
1573.61	194
1578.87	282
1584.12	414
1589.37	232
1594.61	322
1599.85	608
1605.08	584
1610.31	274
1615.53	190
1620.75	174
1625.96	158
1631.17	154
1636.37	154
1641.57	156
1646.76	158
1651.95	132
1657.13	140
1662.31	134
1667.48	138
1672.65	124
1677.81	132
1682.97	120
1688.12	132
1693.27	126
1698.41	124
1702.26	110