File: Jesse_Dataset_v2/Pure Raman/Polystyrene/785nm/ps-ppo-6jan25-1,0000-map3_Y08_X08.txt
204.377	858
211.048	884
217.712	912
224.369	908
231.019	724
237.661	544
244.297	386
250.924	312
257.546	274
264.16	258
270.766	246
277.365	224
283.958	206
290.543	198
297.121	186
303.693	184
310.256	184
316.813	174
323.362	174
329.905	182
336.441	186
342.969	174
349.491	154
356.006	170
362.513	160
369.014	156
375.508	176
381.994	176
388.473	194
394.947	196
401.412	222
407.871	240
414.323	218
420.768	182
427.206	154
433.637	148
440.062	136
446.479	124
452.89	130
459.293	116
465.691	116
472.081	106
478.463	110
484.84	110
491.21	116
497.573	118
503.929	112
510.279	126
516.621	128
522.957	120
529.287	136
535.609	142
541.925	150
548.234	146
554.536	142
560.832	142
567.12	136
573.403	150
579.679	128
585.948	124
592.211	118
598.466	122
604.715	138
610.958	162
617.194	340
623.424	474
629.647	156
635.864	106
642.074	96
648.276	94
654.473	80
660.664	86
666.847	86
673.025	84
679.195	86
685.36	86
691.517	88
697.669	96
703.814	102
709.953	92
716.085	98
722.21	138
728.33	142
734.443	148
740.549	188
746.65	194
752.743	216
758.831	224
764.912	232
770.986	218
777.055	210
783.117	242
789.173	312
795.222	354
801.265	282
807.302	206
813.333	172
819.357	122
825.376	118
831.387	120
837.392	140
843.392	156
849.386	148
855.372	126
861.353	136
867.328	126
873.296	124
879.258	128
885.214	112
891.164	120
897.108	116
903.046	144
908.977	142
914.903	122
920.822	102
926.735	92
932.643	96
938.543	100
944.439	114
950.328	104
956.21	108
962.088	132
967.958	130
973.824	136
979.682	192
985.534	288
991.382	834
997.222	1254
1003.06	2870
1008.89	444
1014.71	192
1020.53	224
1026.34	520
1032.14	914
1037.94	396
1043.73	200
1049.52	162
1055.3	160
1061.08	150
1066.85	182
1072.61	176
1078.37	180
1084.12	166
1089.87	162
1095.61	164
1101.34	170
1107.07	146
1112.8	140
1118.51	134
1124.22	118
1129.93	114
1135.63	114
1141.32	140
1147.01	176
1152.69	376
1158.37	352
1164.04	206
1169.71	222
1175.37	306
1181.02	538
1186.67	434
1192.31	466
1197.95	506
1203.58	446
1209.2	316
1214.82	244
1220.44	212
1226.05	194
1231.65	194
1237.25	178
1242.84	172
1248.42	184
1254	178
1259.58	182
1265.15	180
1270.71	176
1276.27	158
1281.82	168
1287.37	194
1292.91	196
1298.45	216
1303.98	214
1309.5	240
1315.02	258
1320.53	270
1326.04	308
1331.54	300
1337.04	298
1342.53	272
1348.02	264
1353.5	290
1358.98	276
1364.45	286
1369.91	286
1375.37	296
1380.82	272
1386.27	260
1391.71	252
1397.15	248
1402.58	260
1408.01	234
1413.43	230
1418.85	236
1424.26	206
1429.66	230
1435.06	274
1440.46	296
1445.85	338
1451.23	336
1456.61	266
1461.98	210
1467.35	196
1472.71	196
1478.07	200
1483.42	194
1488.77	190
1494.11	186
1499.45	174
1504.78	174
1510.11	182
1515.43	174
1520.74	174
1526.05	166
1531.36	184
1536.66	172
1541.95	174
1547.24	166
1552.52	164
1557.8	172
1563.08	164
1568.35	176
1573.61	204
1578.87	268
1584.12	402
1589.37	256
1594.61	312
1599.85	638
1605.08	550
1610.31	290
1615.53	204
1620.75	172
1625.96	172
1631.17	174
1636.37	152
1641.57	158
1646.76	168
1651.95	142
1657.13	134
1662.31	144
1667.48	142
1672.65	140
1677.81	130
1682.97	124
1688.12	128
1693.27	122
1698.41	126
1702.26	130