File: Jesse_Dataset_v2/Pure Raman/Polystyrene/785nm/ps-ppo-6jan25-1,0000-map3_Y04_X03.txt
204.377	860
211.048	896
217.712	936
224.369	874
231.019	722
237.661	534
244.297	378
250.924	300
257.546	272
264.16	258
270.766	260
277.365	232
283.958	230
290.543	184
297.121	178
303.693	160
310.256	168
316.813	182
323.362	182
329.905	166
336.441	168
342.969	176
349.491	156
356.006	150
362.513	154
369.014	148
375.508	168
381.994	178
388.473	188
394.947	180
401.412	224
407.871	232
414.323	194
420.768	184
427.206	162
433.637	144
440.062	136
446.479	126
452.89	124
459.293	104
465.691	104
472.081	112
478.463	102
484.84	106
491.21	98
497.573	108
503.929	114
510.279	110
516.621	114
522.957	106
529.287	112
535.609	150
541.925	158
548.234	144
554.536	146
560.832	144
567.12	132
573.403	136
579.679	120
585.948	108
592.211	120
598.466	114
604.715	134
610.958	144
617.194	326
623.424	466
629.647	138
635.864	100
642.074	80
648.276	78
654.473	78
660.664	80
666.847	76
673.025	78
679.195	72
685.36	80
691.517	74
697.669	80
703.814	106
709.953	100
716.085	98
722.21	134
728.33	120
734.443	140
740.549	180
746.65	192
752.743	212
758.831	246
764.912	216
770.986	200
777.055	206
783.117	246
789.173	310
795.222	318
801.265	286
807.302	178
813.333	154
819.357	130
825.376	110
831.387	114
837.392	154
843.392	158
849.386	128
855.372	130
861.353	124
867.328	124
873.296	128
879.258	118
885.214	118
891.164	116
897.108	124
903.046	136
908.977	146
914.903	120
920.822	100
926.735	96
932.643	98
938.543	98
944.439	104
950.328	100
956.21	110
962.088	118
967.958	118
973.824	140
979.682	192
985.534	262
991.382	754
997.222	1224
1003.06	2898
1008.89	420
1014.71	188
1020.53	216
1026.34	492
1032.14	892
1037.94	422
1043.73	220
1049.52	160
1055.3	154
1061.08	164
1066.85	170
1072.61	174
1078.37	168
1084.12	164
1089.87	166
1095.61	172
1101.34	170
1107.07	148
1112.8	136
1118.51	118
1124.22	108
1129.93	100
1135.63	102
1141.32	122
1147.01	158
1152.69	370
1158.37	356
1164.04	214
1169.71	214
1175.37	294
1181.02	530
1186.67	450
1192.31	462
1197.95	512
1203.58	438
1209.2	320
1214.82	244
1220.44	202
1226.05	190
1231.65	170
1237.25	160
1242.84	164
1248.42	172
1254	162
1259.58	166
1265.15	164
1270.71	170
1276.27	162
1281.82	182
1287.37	180
1292.91	194
1298.45	196
1303.98	220
1309.5	248
1315.02	242
1320.53	266
1326.04	288
1331.54	296
1337.04	290
1342.53	278
1348.02	250
1353.5	260
1358.98	268
1364.45	280
1369.91	286
1375.37	284
1380.82	246
1386.27	242
1391.71	244
1397.15	246
1402.58	218
1408.01	216
1413.43	218
1418.85	220
1424.26	200
1429.66	208
1435.06	236
1440.46	278
1445.85	328
1451.23	316
1456.61	262
1461.98	206
1467.35	192
1472.71	182
1478.07	180
1483.42	170
1488.77	188
1494.11	190
1499.45	172
1504.78	168
1510.11	174
1515.43	158
1520.74	156
1526.05	154
1531.36	162
1536.66	152
1541.95	164
1547.24	152
1552.52	166
1557.8	158
1563.08	166
1568.35	168
1573.61	204
1578.87	274
1584.12	422
1589.37	246
1594.61	304
1599.85	596
1605.08	538
1610.31	282
1615.53	202
1620.75	172
1625.96	160
1631.17	158
1636.37	144
1641.57	148
1646.76	154
1651.95	134
1657.13	144
1662.31	140
1667.48	126
1672.65	126
1677.81	120
1682.97	128
1688.12	122
1693.27	122
1698.41	120
1702.26	116