File: Jesse_Dataset_v2/Pure Raman/Polystyrene/785nm/ps-ppo-6jan25-1,0000-map3_Y07_X09.txt
204.377	868
211.048	900
217.712	914
224.369	870
231.019	742
237.661	538
244.297	394
250.924	326
257.546	282
264.16	284
270.766	236
277.365	256
283.958	228
290.543	196
297.121	170
303.693	168
310.256	156
316.813	170
323.362	186
329.905	174
336.441	174
342.969	172
349.491	164
356.006	150
362.513	160
369.014	154
375.508	160
381.994	170
388.473	200
394.947	192
401.412	222
407.871	228
414.323	210
420.768	172
427.206	164
433.637	148
440.062	140
446.479	130
452.89	118
459.293	118
465.691	108
472.081	100
478.463	104
484.84	112
491.21	106
497.573	114
503.929	112
510.279	116
516.621	124
522.957	110
529.287	126
535.609	152
541.925	160
548.234	138
554.536	160
560.832	132
567.12	148
573.403	138
579.679	128
585.948	116
592.211	112
598.466	108
604.715	132
610.958	152
617.194	324
623.424	446
629.647	146
635.864	108
642.074	92
648.276	88
654.473	86
660.664	76
666.847	78
673.025	78
679.195	80
685.36	86
691.517	80
697.669	100
703.814	110
709.953	108
716.085	108
722.21	138
728.33	124
734.443	138
740.549	190
746.65	194
752.743	198
758.831	238
764.912	234
770.986	196
777.055	202
783.117	250
789.173	302
795.222	352
801.265	278
807.302	196
813.333	170
819.357	132
825.376	104
831.387	118
837.392	150
843.392	152
849.386	150
855.372	130
861.353	126
867.328	126
873.296	134
879.258	120
885.214	110
891.164	118
897.108	126
903.046	152
908.977	152
914.903	118
920.822	108
926.735	104
932.643	100
938.543	100
944.439	108
950.328	102
956.21	106
962.088	126
967.958	124
973.824	124
979.682	196
985.534	282
991.382	806
997.222	1272
1003.06	2872
1008.89	464
1014.71	198
1020.53	216
1026.34	496
1032.14	898
1037.94	402
1043.73	216
1049.52	162
1055.3	156
1061.08	166
1066.85	172
1072.61	186
1078.37	168
1084.12	174
1089.87	178
1095.61	158
1101.34	172
1107.07	148
1112.8	120
1118.51	116
1124.22	104
1129.93	104
1135.63	122
1141.32	144
1147.01	172
1152.69	354
1158.37	332
1164.04	222
1169.71	222
1175.37	304
1181.02	530
1186.67	454
1192.31	464
1197.95	500
1203.58	468
1209.2	330
1214.82	228
1220.44	204
1226.05	194
1231.65	188
1237.25	172
1242.84	158
1248.42	182
1254	168
1259.58	172
1265.15	168
1270.71	180
1276.27	174
1281.82	176
1287.37	190
1292.91	196
1298.45	210
1303.98	226
1309.5	244
1315.02	258
1320.53	276
1326.04	280
1331.54	296
1337.04	296
1342.53	286
1348.02	278
1353.5	264
1358.98	276
1364.45	286
1369.91	306
1375.37	290
1380.82	286
1386.27	276
1391.71	262
1397.15	252
1402.58	252
1408.01	238
1413.43	230
1418.85	232
1424.26	242
1429.66	244
1435.06	250
1440.46	298
1445.85	312
1451.23	336
1456.61	280
1461.98	226
1467.35	214
1472.71	180
1478.07	188
1483.42	192
1488.77	192
1494.11	208
1499.45	196
1504.78	172
1510.11	190
1515.43	178
1520.74	186
1526.05	172
1531.36	180
1536.66	164
1541.95	172
1547.24	180
1552.52	170
1557.8	178
1563.08	166
1568.35	190
1573.61	202
1578.87	286
1584.12	406
1589.37	252
1594.61	306
1599.85	638
1605.08	574
1610.31	286
1615.53	184
1620.75	172
1625.96	166
1631.17	162
1636.37	156
1641.57	154
1646.76	164
1651.95	146
1657.13	144
1662.31	138
1667.48	142
1672.65	132
1677.81	140
1682.97	130
1688.12	138
1693.27	134
1698.41	132
1702.26	126