File: Jesse_Dataset_v2/Pure Raman/Polystyrene/785nm/ps-ppo-6jan25-1,0000-map3_Y09_X01.txt
204.377	852
211.048	894
217.712	912
224.369	876
231.019	712
237.661	552
244.297	366
250.924	326
257.546	290
264.16	246
270.766	260
277.365	234
283.958	208
290.543	204
297.121	172
303.693	178
310.256	184
316.813	172
323.362	178
329.905	168
336.441	168
342.969	170
349.491	148
356.006	152
362.513	158
369.014	156
375.508	176
381.994	180
388.473	184
394.947	194
401.412	220
407.871	264
414.323	204
420.768	184
427.206	148
433.637	154
440.062	146
446.479	126
452.89	110
459.293	114
465.691	102
472.081	110
478.463	100
484.84	108
491.21	96
497.573	100
503.929	116
510.279	100
516.621	110
522.957	120
529.287	124
535.609	144
541.925	150
548.234	144
554.536	130
560.832	140
567.12	138
573.403	150
579.679	134
585.948	108
592.211	110
598.466	112
604.715	126
610.958	142
617.194	324
623.424	462
629.647	142
635.864	112
642.074	92
648.276	86
654.473	80
660.664	78
666.847	84
673.025	80
679.195	72
685.36	80
691.517	76
697.669	86
703.814	116
709.953	98
716.085	96
722.21	132
728.33	132
734.443	138
740.549	184
746.65	188
752.743	210
758.831	242
764.912	226
770.986	204
777.055	206
783.117	238
789.173	316
795.222	326
801.265	280
807.302	188
813.333	174
819.357	130
825.376	108
831.387	118
837.392	134
843.392	156
849.386	152
855.372	126
861.353	120
867.328	134
873.296	126
879.258	122
885.214	116
891.164	112
897.108	114
903.046	142
908.977	146
914.903	114
920.822	98
926.735	100
932.643	100
938.543	102
944.439	96
950.328	100
956.21	108
962.088	118
967.958	130
973.824	136
979.682	186
985.534	272
991.382	762
997.222	1230
1003.06	2852
1008.89	446
1014.71	184
1020.53	232
1026.34	500
1032.14	870
1037.94	412
1043.73	198
1049.52	156
1055.3	138
1061.08	154
1066.85	176
1072.61	178
1078.37	162
1084.12	174
1089.87	160
1095.61	174
1101.34	170
1107.07	156
1112.8	124
1118.51	114
1124.22	110
1129.93	108
1135.63	120
1141.32	120
1147.01	172
1152.69	366
1158.37	344
1164.04	224
1169.71	214
1175.37	300
1181.02	534
1186.67	426
1192.31	488
1197.95	490
1203.58	420
1209.2	308
1214.82	230
1220.44	206
1226.05	190
1231.65	178
1237.25	164
1242.84	174
1248.42	182
1254	166
1259.58	160
1265.15	154
1270.71	172
1276.27	166
1281.82	168
1287.37	172
1292.91	188
1298.45	202
1303.98	222
1309.5	220
1315.02	246
1320.53	256
1326.04	288
1331.54	296
1337.04	286
1342.53	268
1348.02	248
1353.5	268
1358.98	246
1364.45	280
1369.91	278
1375.37	280
1380.82	274
1386.27	216
1391.71	246
1397.15	218
1402.58	220
1408.01	220
1413.43	224
1418.85	226
1424.26	206
1429.66	224
1435.06	238
1440.46	270
1445.85	326
1451.23	332
1456.61	254
1461.98	208
1467.35	202
1472.71	180
1478.07	182
1483.42	178
1488.77	180
1494.11	180
1499.45	172
1504.78	168
1510.11	162
1515.43	176
1520.74	154
1526.05	164
1531.36	162
1536.66	154
1541.95	158
1547.24	162
1552.52	154
1557.8	162
1563.08	170
1568.35	160
1573.61	196
1578.87	276
1584.12	406
1589.37	244
1594.61	292
1599.85	646
1605.08	544
1610.31	266
1615.53	186
1620.75	170
1625.96	164
1631.17	152
1636.37	148
1641.57	148
1646.76	152
1651.95	128
1657.13	122
1662.31	142
1667.48	124
1672.65	138
1677.81	126
1682.97	118
1688.12	118
1693.27	120
1698.41	116
1702.26	120