File: Jesse_Dataset_v2/Pure Raman/Polystyrene/785nm/ps-ppo-6jan25-1,0000-map3_Y01_X03.txt
204.377	818
211.048	876
217.712	918
224.369	872
231.019	700
237.661	536
244.297	370
250.924	302
257.546	270
264.16	252
270.766	248
277.365	224
283.958	200
290.543	182
297.121	170
303.693	172
310.256	158
316.813	154
323.362	162
329.905	170
336.441	162
342.969	160
349.491	142
356.006	152
362.513	144
369.014	146
375.508	152
381.994	170
388.473	174
394.947	188
401.412	200
407.871	224
414.323	188
420.768	166
427.206	152
433.637	142
440.062	118
446.479	124
452.89	116
459.293	106
465.691	112
472.081	104
478.463	100
484.84	86
491.21	94
497.573	98
503.929	112
510.279	96
516.621	108
522.957	122
529.287	118
535.609	130
541.925	144
548.234	140
554.536	126
560.832	132
567.12	128
573.403	134
579.679	124
585.948	104
592.211	104
598.466	112
604.715	134
610.958	144
617.194	316
623.424	472
629.647	138
635.864	106
642.074	86
648.276	82
654.473	72
660.664	82
666.847	74
673.025	74
679.195	68
685.36	72
691.517	72
697.669	80
703.814	100
709.953	90
716.085	92
722.21	134
728.33	110
734.443	124
740.549	180
746.65	192
752.743	206
758.831	252
764.912	216
770.986	198
777.055	190
783.117	236
789.173	300
795.222	342
801.265	290
807.302	192
813.333	164
819.357	130
825.376	116
831.387	108
837.392	136
843.392	156
849.386	132
855.372	116
861.353	124
867.328	118
873.296	116
879.258	118
885.214	116
891.164	108
897.108	112
903.046	142
908.977	140
914.903	120
920.822	100
926.735	94
932.643	102
938.543	94
944.439	100
950.328	98
956.21	102
962.088	122
967.958	130
973.824	142
979.682	182
985.534	252
991.382	738
997.222	1182
1003.06	2882
1008.89	448
1014.71	196
1020.53	222
1026.34	480
1032.14	894
1037.94	398
1043.73	198
1049.52	170
1055.3	152
1061.08	154
1066.85	170
1072.61	180
1078.37	178
1084.12	160
1089.87	172
1095.61	162
1101.34	174
1107.07	140
1112.8	128
1118.51	126
1124.22	104
1129.93	110
1135.63	124
1141.32	124
1147.01	170
1152.69	348
1158.37	344
1164.04	208
1169.71	212
1175.37	290
1181.02	510
1186.67	426
1192.31	464
1197.95	504
1203.58	438
1209.2	304
1214.82	218
1220.44	210
1226.05	196
1231.65	172
1237.25	170
1242.84	160
1248.42	156
1254	176
1259.58	176
1265.15	152
1270.71	158
1276.27	174
1281.82	162
1287.37	176
1292.91	186
1298.45	204
1303.98	216
1309.5	240
1315.02	224
1320.53	278
1326.04	280
1331.54	304
1337.04	268
1342.53	262
1348.02	254
1353.5	272
1358.98	254
1364.45	268
1369.91	276
1375.37	270
1380.82	264
1386.27	254
1391.71	230
1397.15	214
1402.58	248
1408.01	242
1413.43	214
1418.85	214
1424.26	218
1429.66	204
1435.06	242
1440.46	266
1445.85	316
1451.23	316
1456.61	260
1461.98	212
1467.35	182
1472.71	168
1478.07	166
1483.42	190
1488.77	176
1494.11	184
1499.45	180
1504.78	168
1510.11	162
1515.43	160
1520.74	160
1526.05	158
1531.36	152
1536.66	158
1541.95	160
1547.24	156
1552.52	154
1557.8	158
1563.08	162
1568.35	168
1573.61	184
1578.87	256
1584.12	398
1589.37	236
1594.61	302
1599.85	622
1605.08	550
1610.31	272
1615.53	202
1620.75	170
1625.96	150
1631.17	146
1636.37	146
1641.57	154
1646.76	144
1651.95	156
1657.13	142
1662.31	130
1667.48	114
1672.65	118
1677.81	122
1682.97	128
1688.12	120
1693.27	112
1698.41	112
1702.26	114