File: Jesse_Dataset_v2/Pure Raman/Polystyrene/785nm/ps-ppo-6jan25-1,0000-map3_Y08_X07.txt
204.377	856
211.048	870
217.712	922
224.369	896
231.019	712
237.661	552
244.297	382
250.924	320
257.546	292
264.16	276
270.766	238
277.365	242
283.958	204
290.543	184
297.121	176
303.693	160
310.256	176
316.813	168
323.362	170
329.905	176
336.441	174
342.969	168
349.491	154
356.006	156
362.513	150
369.014	146
375.508	160
381.994	166
388.473	184
394.947	200
401.412	216
407.871	240
414.323	202
420.768	178
427.206	154
433.637	148
440.062	134
446.479	130
452.89	116
459.293	126
465.691	110
472.081	118
478.463	106
484.84	102
491.21	104
497.573	112
503.929	118
510.279	100
516.621	108
522.957	120
529.287	130
535.609	150
541.925	156
548.234	150
554.536	142
560.832	130
567.12	136
573.403	144
579.679	128
585.948	122
592.211	116
598.466	122
604.715	148
610.958	150
617.194	322
623.424	456
629.647	150
635.864	114
642.074	86
648.276	86
654.473	90
660.664	86
666.847	88
673.025	86
679.195	78
685.36	84
691.517	88
697.669	94
703.814	104
709.953	102
716.085	100
722.21	144
728.33	130
734.443	140
740.549	178
746.65	186
752.743	214
758.831	238
764.912	214
770.986	220
777.055	204
783.117	234
789.173	322
795.222	354
801.265	294
807.302	198
813.333	172
819.357	134
825.376	116
831.387	112
837.392	150
843.392	158
849.386	132
855.372	124
861.353	126
867.328	126
873.296	128
879.258	128
885.214	108
891.164	110
897.108	124
903.046	142
908.977	142
914.903	126
920.822	106
926.735	92
932.643	106
938.543	106
944.439	100
950.328	102
956.21	112
962.088	124
967.958	140
973.824	122
979.682	172
985.534	296
991.382	812
997.222	1240
1003.06	2814
1008.89	438
1014.71	196
1020.53	212
1026.34	486
1032.14	886
1037.94	418
1043.73	192
1049.52	168
1055.3	152
1061.08	136
1066.85	178
1072.61	180
1078.37	174
1084.12	168
1089.87	160
1095.61	170
1101.34	172
1107.07	148
1112.8	144
1118.51	112
1124.22	96
1129.93	114
1135.63	120
1141.32	130
1147.01	198
1152.69	362
1158.37	362
1164.04	194
1169.71	206
1175.37	316
1181.02	544
1186.67	426
1192.31	484
1197.95	518
1203.58	448
1209.2	328
1214.82	236
1220.44	204
1226.05	204
1231.65	192
1237.25	170
1242.84	178
1248.42	170
1254	168
1259.58	174
1265.15	172
1270.71	162
1276.27	188
1281.82	180
1287.37	192
1292.91	198
1298.45	224
1303.98	226
1309.5	238
1315.02	240
1320.53	276
1326.04	300
1331.54	296
1337.04	288
1342.53	270
1348.02	270
1353.5	278
1358.98	274
1364.45	264
1369.91	288
1375.37	272
1380.82	284
1386.27	256
1391.71	252
1397.15	256
1402.58	256
1408.01	232
1413.43	238
1418.85	252
1424.26	224
1429.66	222
1435.06	254
1440.46	286
1445.85	324
1451.23	346
1456.61	282
1461.98	216
1467.35	204
1472.71	200
1478.07	190
1483.42	188
1488.77	196
1494.11	192
1499.45	190
1504.78	176
1510.11	166
1515.43	172
1520.74	180
1526.05	174
1531.36	162
1536.66	168
1541.95	154
1547.24	162
1552.52	170
1557.8	168
1563.08	172
1568.35	184
1573.61	206
1578.87	276
1584.12	412
1589.37	254
1594.61	324
1599.85	632
1605.08	550
1610.31	282
1615.53	202
1620.75	186
1625.96	158
1631.17	148
1636.37	156
1641.57	162
1646.76	160
1651.95	144
1657.13	140
1662.31	138
1667.48	130
1672.65	140
1677.81	138
1682.97	134
1688.12	132
1693.27	116
1698.41	128
1702.26	124