File: Jesse_Dataset_v2/Pure Raman/Polystyrene/785nm/ps-ppo-6jan25-1,0000-map3_Y08_X10.txt
204.377	852
211.048	890
217.712	924
224.369	842
231.019	720
237.661	540
244.297	380
250.924	326
257.546	268
264.16	272
270.766	252
277.365	234
283.958	198
290.543	190
297.121	176
303.693	182
310.256	184
316.813	176
323.362	166
329.905	168
336.441	164
342.969	166
349.491	156
356.006	150
362.513	156
369.014	152
375.508	152
381.994	174
388.473	200
394.947	192
401.412	216
407.871	224
414.323	196
420.768	164
427.206	160
433.637	142
440.062	132
446.479	140
452.89	110
459.293	112
465.691	108
472.081	104
478.463	98
484.84	102
491.21	104
497.573	104
503.929	114
510.279	104
516.621	104
522.957	122
529.287	130
535.609	136
541.925	148
548.234	144
554.536	136
560.832	140
567.12	124
573.403	132
579.679	122
585.948	120
592.211	116
598.466	118
604.715	132
610.958	160
617.194	322
623.424	468
629.647	152
635.864	110
642.074	88
648.276	80
654.473	84
660.664	84
666.847	84
673.025	74
679.195	86
685.36	76
691.517	80
697.669	90
703.814	96
709.953	102
716.085	102
722.21	134
728.33	134
734.443	130
740.549	190
746.65	198
752.743	200
758.831	232
764.912	218
770.986	206
777.055	202
783.117	250
789.173	304
795.222	358
801.265	282
807.302	194
813.333	156
819.357	128
825.376	112
831.387	114
837.392	146
843.392	164
849.386	134
855.372	126
861.353	122
867.328	120
873.296	122
879.258	124
885.214	102
891.164	118
897.108	120
903.046	142
908.977	144
914.903	124
920.822	104
926.735	96
932.643	106
938.543	104
944.439	104
950.328	116
956.21	106
962.088	106
967.958	122
973.824	134
979.682	188
985.534	280
991.382	794
997.222	1260
1003.06	2794
1008.89	446
1014.71	188
1020.53	224
1026.34	514
1032.14	890
1037.94	408
1043.73	206
1049.52	166
1055.3	156
1061.08	166
1066.85	166
1072.61	182
1078.37	174
1084.12	168
1089.87	168
1095.61	160
1101.34	172
1107.07	136
1112.8	136
1118.51	120
1124.22	116
1129.93	120
1135.63	120
1141.32	124
1147.01	180
1152.69	380
1158.37	336
1164.04	214
1169.71	224
1175.37	304
1181.02	526
1186.67	450
1192.31	490
1197.95	512
1203.58	452
1209.2	310
1214.82	252
1220.44	214
1226.05	214
1231.65	174
1237.25	172
1242.84	184
1248.42	176
1254	168
1259.58	166
1265.15	172
1270.71	168
1276.27	170
1281.82	182
1287.37	190
1292.91	204
1298.45	210
1303.98	222
1309.5	234
1315.02	260
1320.53	260
1326.04	296
1331.54	306
1337.04	284
1342.53	278
1348.02	280
1353.5	286
1358.98	286
1364.45	290
1369.91	304
1375.37	306
1380.82	298
1386.27	266
1391.71	248
1397.15	252
1402.58	258
1408.01	226
1413.43	252
1418.85	228
1424.26	248
1429.66	218
1435.06	280
1440.46	304
1445.85	326
1451.23	322
1456.61	288
1461.98	232
1467.35	206
1472.71	196
1478.07	186
1483.42	190
1488.77	184
1494.11	192
1499.45	186
1504.78	180
1510.11	180
1515.43	162
1520.74	168
1526.05	170
1531.36	178
1536.66	178
1541.95	164
1547.24	174
1552.52	172
1557.8	168
1563.08	168
1568.35	182
1573.61	204
1578.87	272
1584.12	406
1589.37	262
1594.61	304
1599.85	624
1605.08	548
1610.31	296
1615.53	206
1620.75	166
1625.96	174
1631.17	162
1636.37	152
1641.57	154
1646.76	160
1651.95	144
1657.13	142
1662.31	158
1667.48	140
1672.65	144
1677.81	140
1682.97	132
1688.12	136
1693.27	124
1698.41	128
1702.26	134