File: Jesse_Dataset_v2/Pure Raman/Polystyrene/785nm/ps-ppo-6jan25-1,0000-map3_Y00_X04.txt
204.377	818
211.048	888
217.712	910
224.369	828
231.019	710
237.661	542
244.297	382
250.924	302
257.546	274
264.16	244
270.766	240
277.365	228
283.958	220
290.543	174
297.121	174
303.693	170
310.256	170
316.813	164
323.362	158
329.905	158
336.441	172
342.969	158
349.491	144
356.006	154
362.513	138
369.014	148
375.508	144
381.994	174
388.473	166
394.947	196
401.412	214
407.871	216
414.323	184
420.768	156
427.206	134
433.637	136
440.062	138
446.479	112
452.89	108
459.293	104
465.691	108
472.081	98
478.463	94
484.84	90
491.21	108
497.573	106
503.929	106
510.279	102
516.621	106
522.957	108
529.287	118
535.609	132
541.925	144
548.234	140
554.536	140
560.832	126
567.12	134
573.403	138
579.679	126
585.948	106
592.211	104
598.466	110
604.715	128
610.958	140
617.194	298
623.424	484
629.647	144
635.864	102
642.074	88
648.276	76
654.473	78
660.664	74
666.847	68
673.025	70
679.195	72
685.36	74
691.517	72
697.669	84
703.814	86
709.953	98
716.085	86
722.21	126
728.33	110
734.443	130
740.549	170
746.65	190
752.743	206
758.831	232
764.912	216
770.986	184
777.055	198
783.117	248
789.173	322
795.222	350
801.265	276
807.302	180
813.333	168
819.357	134
825.376	106
831.387	118
837.392	134
843.392	158
849.386	124
855.372	116
861.353	122
867.328	118
873.296	118
879.258	116
885.214	114
891.164	110
897.108	116
903.046	152
908.977	136
914.903	108
920.822	102
926.735	98
932.643	84
938.543	90
944.439	104
950.328	104
956.21	106
962.088	120
967.958	132
973.824	126
979.682	184
985.534	284
991.382	742
997.222	1212
1003.06	2884
1008.89	442
1014.71	188
1020.53	214
1026.34	486
1032.14	884
1037.94	408
1043.73	212
1049.52	164
1055.3	150
1061.08	156
1066.85	176
1072.61	172
1078.37	172
1084.12	150
1089.87	170
1095.61	162
1101.34	174
1107.07	146
1112.8	110
1118.51	116
1124.22	106
1129.93	106
1135.63	100
1141.32	126
1147.01	156
1152.69	346
1158.37	342
1164.04	220
1169.71	200
1175.37	316
1181.02	514
1186.67	430
1192.31	486
1197.95	490
1203.58	436
1209.2	326
1214.82	218
1220.44	206
1226.05	198
1231.65	174
1237.25	184
1242.84	176
1248.42	160
1254	176
1259.58	170
1265.15	168
1270.71	170
1276.27	160
1281.82	172
1287.37	178
1292.91	200
1298.45	196
1303.98	220
1309.5	220
1315.02	224
1320.53	254
1326.04	296
1331.54	294
1337.04	278
1342.53	266
1348.02	240
1353.5	262
1358.98	244
1364.45	266
1369.91	272
1375.37	272
1380.82	248
1386.27	244
1391.71	224
1397.15	220
1402.58	224
1408.01	224
1413.43	222
1418.85	208
1424.26	214
1429.66	224
1435.06	246
1440.46	266
1445.85	328
1451.23	334
1456.61	262
1461.98	208
1467.35	182
1472.71	184
1478.07	174
1483.42	178
1488.77	170
1494.11	180
1499.45	170
1504.78	168
1510.11	150
1515.43	172
1520.74	152
1526.05	162
1531.36	158
1536.66	156
1541.95	140
1547.24	152
1552.52	152
1557.8	154
1563.08	156
1568.35	158
1573.61	190
1578.87	262
1584.12	420
1589.37	246
1594.61	290
1599.85	610
1605.08	548
1610.31	280
1615.53	182
1620.75	170
1625.96	150
1631.17	144
1636.37	144
1641.57	142
1646.76	136
1651.95	140
1657.13	134
1662.31	122
1667.48	134
1672.65	126
1677.81	130
1682.97	130
1688.12	120
1693.27	112
1698.41	122
1702.26	114