File: Jesse_Dataset_v2/Pure Raman/Polystyrene/785nm/ps-ppo-6jan25-1,0000-map3_Y09_X02.txt
204.377	800
211.048	876
217.712	924
224.369	874
231.019	712
237.661	518
244.297	388
250.924	310
257.546	286
264.16	266
270.766	244
277.365	242
283.958	206
290.543	180
297.121	176
303.693	164
310.256	160
316.813	174
323.362	172
329.905	160
336.441	148
342.969	144
349.491	158
356.006	144
362.513	154
369.014	154
375.508	168
381.994	178
388.473	168
394.947	194
401.412	216
407.871	234
414.323	192
420.768	156
427.206	152
433.637	138
440.062	138
446.479	128
452.89	112
459.293	114
465.691	104
472.081	110
478.463	100
484.84	102
491.21	102
497.573	106
503.929	110
510.279	100
516.621	108
522.957	106
529.287	122
535.609	138
541.925	144
548.234	132
554.536	144
560.832	138
567.12	130
573.403	138
579.679	116
585.948	118
592.211	114
598.466	106
604.715	130
610.958	142
617.194	306
623.424	428
629.647	154
635.864	108
642.074	90
648.276	80
654.473	76
660.664	78
666.847	76
673.025	76
679.195	68
685.36	70
691.517	74
697.669	78
703.814	100
709.953	88
716.085	98
722.21	132
728.33	124
734.443	134
740.549	180
746.65	178
752.743	196
758.831	226
764.912	228
770.986	204
777.055	196
783.117	248
789.173	308
795.222	360
801.265	276
807.302	200
813.333	152
819.357	130
825.376	106
831.387	128
837.392	158
843.392	154
849.386	126
855.372	116
861.353	120
867.328	132
873.296	114
879.258	114
885.214	114
891.164	108
897.108	122
903.046	140
908.977	144
914.903	114
920.822	98
926.735	88
932.643	102
938.543	98
944.439	104
950.328	104
956.21	100
962.088	120
967.958	128
973.824	140
979.682	178
985.534	264
991.382	784
997.222	1236
1003.06	2826
1008.89	436
1014.71	184
1020.53	226
1026.34	506
1032.14	900
1037.94	410
1043.73	192
1049.52	158
1055.3	150
1061.08	158
1066.85	178
1072.61	174
1078.37	172
1084.12	174
1089.87	162
1095.61	154
1101.34	174
1107.07	138
1112.8	136
1118.51	126
1124.22	110
1129.93	100
1135.63	102
1141.32	122
1147.01	164
1152.69	370
1158.37	338
1164.04	214
1169.71	214
1175.37	304
1181.02	540
1186.67	424
1192.31	482
1197.95	492
1203.58	450
1209.2	328
1214.82	236
1220.44	194
1226.05	188
1231.65	170
1237.25	172
1242.84	162
1248.42	166
1254	174
1259.58	176
1265.15	170
1270.71	182
1276.27	164
1281.82	176
1287.37	180
1292.91	190
1298.45	204
1303.98	220
1309.5	226
1315.02	244
1320.53	266
1326.04	272
1331.54	304
1337.04	290
1342.53	242
1348.02	264
1353.5	268
1358.98	262
1364.45	284
1369.91	282
1375.37	260
1380.82	250
1386.27	248
1391.71	216
1397.15	236
1402.58	234
1408.01	210
1413.43	210
1418.85	228
1424.26	206
1429.66	230
1435.06	256
1440.46	280
1445.85	314
1451.23	312
1456.61	278
1461.98	208
1467.35	194
1472.71	166
1478.07	190
1483.42	196
1488.77	176
1494.11	182
1499.45	190
1504.78	172
1510.11	160
1515.43	162
1520.74	154
1526.05	170
1531.36	152
1536.66	158
1541.95	158
1547.24	166
1552.52	174
1557.8	154
1563.08	168
1568.35	174
1573.61	188
1578.87	278
1584.12	418
1589.37	264
1594.61	286
1599.85	600
1605.08	574
1610.31	282
1615.53	204
1620.75	170
1625.96	152
1631.17	144
1636.37	144
1641.57	160
1646.76	154
1651.95	150
1657.13	128
1662.31	136
1667.48	132
1672.65	120
1677.81	134
1682.97	128
1688.12	138
1693.27	128
1698.41	118
1702.26	114