File: Jesse_Dataset_v2/Pure Raman/Polystyrene/785nm/ps-ppo-6jan25-1,0000-map3_Y07_X05.txt
204.377	808
211.048	880
217.712	920
224.369	912
231.019	740
237.661	544
244.297	422
250.924	334
257.546	288
264.16	264
270.766	260
277.365	248
283.958	234
290.543	212
297.121	182
303.693	188
310.256	172
316.813	174
323.362	188
329.905	192
336.441	172
342.969	182
349.491	172
356.006	160
362.513	158
369.014	170
375.508	184
381.994	166
388.473	196
394.947	202
401.412	234
407.871	232
414.323	204
420.768	184
427.206	150
433.637	154
440.062	150
446.479	136
452.89	130
459.293	126
465.691	112
472.081	114
478.463	120
484.84	104
491.21	110
497.573	116
503.929	116
510.279	114
516.621	118
522.957	124
529.287	130
535.609	152
541.925	166
548.234	144
554.536	152
560.832	134
567.12	138
573.403	146
579.679	134
585.948	120
592.211	110
598.466	122
604.715	140
610.958	162
617.194	332
623.424	460
629.647	158
635.864	110
642.074	96
648.276	88
654.473	78
660.664	86
666.847	82
673.025	80
679.195	88
685.36	86
691.517	74
697.669	94
703.814	108
709.953	98
716.085	94
722.21	140
728.33	140
734.443	142
740.549	180
746.65	188
752.743	214
758.831	252
764.912	244
770.986	216
777.055	214
783.117	244
789.173	308
795.222	366
801.265	288
807.302	192
813.333	164
819.357	128
825.376	108
831.387	120
837.392	160
843.392	166
849.386	144
855.372	150
861.353	114
867.328	128
873.296	126
879.258	112
885.214	114
891.164	112
897.108	124
903.046	142
908.977	136
914.903	120
920.822	106
926.735	106
932.643	98
938.543	94
944.439	108
950.328	114
956.21	110
962.088	120
967.958	132
973.824	142
979.682	184
985.534	280
991.382	766
997.222	1230
1003.06	2828
1008.89	416
1014.71	186
1020.53	196
1026.34	462
1032.14	892
1037.94	396
1043.73	194
1049.52	174
1055.3	160
1061.08	156
1066.85	166
1072.61	182
1078.37	182
1084.12	164
1089.87	158
1095.61	172
1101.34	156
1107.07	146
1112.8	132
1118.51	120
1124.22	112
1129.93	108
1135.63	122
1141.32	132
1147.01	176
1152.69	372
1158.37	342
1164.04	208
1169.71	206
1175.37	292
1181.02	536
1186.67	444
1192.31	482
1197.95	482
1203.58	426
1209.2	304
1214.82	240
1220.44	214
1226.05	192
1231.65	180
1237.25	180
1242.84	186
1248.42	172
1254	180
1259.58	168
1265.15	170
1270.71	178
1276.27	174
1281.82	174
1287.37	194
1292.91	188
1298.45	214
1303.98	234
1309.5	212
1315.02	250
1320.53	274
1326.04	286
1331.54	286
1337.04	288
1342.53	284
1348.02	278
1353.5	266
1358.98	276
1364.45	280
1369.91	296
1375.37	300
1380.82	276
1386.27	250
1391.71	240
1397.15	240
1402.58	224
1408.01	226
1413.43	228
1418.85	226
1424.26	220
1429.66	222
1435.06	248
1440.46	262
1445.85	340
1451.23	334
1456.61	270
1461.98	226
1467.35	196
1472.71	194
1478.07	196
1483.42	190
1488.77	194
1494.11	184
1499.45	188
1504.78	176
1510.11	174
1515.43	170
1520.74	168
1526.05	166
1531.36	154
1536.66	172
1541.95	166
1547.24	178
1552.52	168
1557.8	162
1563.08	174
1568.35	182
1573.61	206
1578.87	284
1584.12	420
1589.37	258
1594.61	310
1599.85	648
1605.08	568
1610.31	288
1615.53	198
1620.75	180
1625.96	150
1631.17	164
1636.37	152
1641.57	150
1646.76	166
1651.95	136
1657.13	126
1662.31	132
1667.48	132
1672.65	130
1677.81	138
1682.97	134
1688.12	134
1693.27	120
1698.41	120
1702.26	130