File: Jesse_Dataset_v2/Pure Raman/Polystyrene/785nm/ps-ppo-6jan25-1,0000-map3_Y04_X04.txt
204.377	808
211.048	862
217.712	910
224.369	890
231.019	722
237.661	540
244.297	374
250.924	312
257.546	278
264.16	238
270.766	250
277.365	240
283.958	208
290.543	182
297.121	160
303.693	164
310.256	164
316.813	160
323.362	188
329.905	178
336.441	160
342.969	158
349.491	148
356.006	146
362.513	160
369.014	150
375.508	148
381.994	180
388.473	178
394.947	194
401.412	218
407.871	240
414.323	206
420.768	162
427.206	158
433.637	160
440.062	140
446.479	134
452.89	120
459.293	114
465.691	106
472.081	112
478.463	100
484.84	96
491.21	104
497.573	106
503.929	114
510.279	104
516.621	106
522.957	114
529.287	114
535.609	152
541.925	144
548.234	138
554.536	132
560.832	144
567.12	130
573.403	134
579.679	122
585.948	118
592.211	116
598.466	116
604.715	130
610.958	138
617.194	324
623.424	482
629.647	158
635.864	108
642.074	92
648.276	88
654.473	74
660.664	80
666.847	80
673.025	80
679.195	76
685.36	78
691.517	74
697.669	86
703.814	96
709.953	90
716.085	92
722.21	124
728.33	128
734.443	132
740.549	172
746.65	190
752.743	222
758.831	224
764.912	218
770.986	200
777.055	218
783.117	236
789.173	318
795.222	350
801.265	294
807.302	192
813.333	158
819.357	132
825.376	112
831.387	114
837.392	146
843.392	158
849.386	134
855.372	130
861.353	132
867.328	116
873.296	114
879.258	126
885.214	106
891.164	112
897.108	118
903.046	142
908.977	144
914.903	126
920.822	96
926.735	94
932.643	100
938.543	92
944.439	94
950.328	102
956.21	110
962.088	122
967.958	120
973.824	122
979.682	186
985.534	278
991.382	762
997.222	1232
1003.06	2908
1008.89	452
1014.71	192
1020.53	216
1026.34	486
1032.14	888
1037.94	418
1043.73	196
1049.52	160
1055.3	154
1061.08	150
1066.85	174
1072.61	176
1078.37	160
1084.12	154
1089.87	172
1095.61	168
1101.34	172
1107.07	146
1112.8	136
1118.51	112
1124.22	106
1129.93	114
1135.63	98
1141.32	128
1147.01	186
1152.69	344
1158.37	342
1164.04	214
1169.71	212
1175.37	300
1181.02	520
1186.67	450
1192.31	468
1197.95	506
1203.58	430
1209.2	316
1214.82	254
1220.44	194
1226.05	188
1231.65	182
1237.25	178
1242.84	164
1248.42	162
1254	160
1259.58	168
1265.15	172
1270.71	186
1276.27	168
1281.82	170
1287.37	174
1292.91	188
1298.45	210
1303.98	224
1309.5	228
1315.02	236
1320.53	270
1326.04	290
1331.54	280
1337.04	278
1342.53	264
1348.02	268
1353.5	258
1358.98	264
1364.45	262
1369.91	262
1375.37	280
1380.82	252
1386.27	246
1391.71	234
1397.15	228
1402.58	230
1408.01	216
1413.43	238
1418.85	220
1424.26	214
1429.66	220
1435.06	242
1440.46	270
1445.85	326
1451.23	320
1456.61	284
1461.98	212
1467.35	178
1472.71	186
1478.07	184
1483.42	174
1488.77	172
1494.11	166
1499.45	172
1504.78	162
1510.11	160
1515.43	170
1520.74	176
1526.05	154
1531.36	156
1536.66	162
1541.95	170
1547.24	162
1552.52	162
1557.8	162
1563.08	162
1568.35	180
1573.61	178
1578.87	266
1584.12	400
1589.37	248
1594.61	316
1599.85	630
1605.08	534
1610.31	270
1615.53	192
1620.75	166
1625.96	158
1631.17	152
1636.37	158
1641.57	152
1646.76	160
1651.95	146
1657.13	134
1662.31	116
1667.48	126
1672.65	130
1677.81	126
1682.97	126
1688.12	122
1693.27	128
1698.41	124
1702.26	124