File: Jesse_Dataset_v2/Pure Raman/Polystyrene/785nm/ps-ppo-6jan25-1,0000-map3_Y10_X09.txt
204.377	848
211.048	902
217.712	910
224.369	878
231.019	728
237.661	544
244.297	372
250.924	316
257.546	270
264.16	250
270.766	252
277.365	228
283.958	226
290.543	186
297.121	180
303.693	174
310.256	174
316.813	180
323.362	182
329.905	162
336.441	180
342.969	170
349.491	156
356.006	152
362.513	152
369.014	164
375.508	160
381.994	174
388.473	182
394.947	194
401.412	226
407.871	224
414.323	200
420.768	178
427.206	152
433.637	140
440.062	142
446.479	130
452.89	122
459.293	112
465.691	108
472.081	120
478.463	108
484.84	100
491.21	96
497.573	106
503.929	110
510.279	120
516.621	116
522.957	120
529.287	122
535.609	136
541.925	154
548.234	134
554.536	138
560.832	140
567.12	142
573.403	136
579.679	126
585.948	116
592.211	108
598.466	114
604.715	128
610.958	152
617.194	332
623.424	470
629.647	158
635.864	122
642.074	88
648.276	82
654.473	90
660.664	86
666.847	78
673.025	72
679.195	72
685.36	74
691.517	80
697.669	92
703.814	98
709.953	96
716.085	98
722.21	146
728.33	130
734.443	140
740.549	176
746.65	190
752.743	210
758.831	220
764.912	212
770.986	214
777.055	200
783.117	242
789.173	322
795.222	342
801.265	290
807.302	192
813.333	166
819.357	136
825.376	126
831.387	120
837.392	146
843.392	156
849.386	150
855.372	128
861.353	118
867.328	122
873.296	124
879.258	126
885.214	110
891.164	118
897.108	118
903.046	150
908.977	146
914.903	120
920.822	104
926.735	104
932.643	98
938.543	96
944.439	98
950.328	114
956.21	108
962.088	116
967.958	132
973.824	138
979.682	180
985.534	278
991.382	830
997.222	1276
1003.06	2854
1008.89	448
1014.71	204
1020.53	222
1026.34	464
1032.14	876
1037.94	404
1043.73	208
1049.52	170
1055.3	150
1061.08	160
1066.85	154
1072.61	162
1078.37	172
1084.12	170
1089.87	158
1095.61	176
1101.34	184
1107.07	144
1112.8	130
1118.51	120
1124.22	112
1129.93	106
1135.63	108
1141.32	136
1147.01	176
1152.69	366
1158.37	346
1164.04	208
1169.71	208
1175.37	306
1181.02	512
1186.67	432
1192.31	484
1197.95	492
1203.58	446
1209.2	348
1214.82	246
1220.44	216
1226.05	208
1231.65	190
1237.25	180
1242.84	178
1248.42	170
1254	172
1259.58	160
1265.15	176
1270.71	176
1276.27	156
1281.82	178
1287.37	182
1292.91	196
1298.45	228
1303.98	218
1309.5	242
1315.02	256
1320.53	286
1326.04	294
1331.54	298
1337.04	314
1342.53	274
1348.02	278
1353.5	270
1358.98	292
1364.45	290
1369.91	280
1375.37	286
1380.82	274
1386.27	260
1391.71	252
1397.15	266
1402.58	260
1408.01	242
1413.43	246
1418.85	224
1424.26	246
1429.66	232
1435.06	256
1440.46	306
1445.85	326
1451.23	346
1456.61	280
1461.98	222
1467.35	204
1472.71	192
1478.07	198
1483.42	196
1488.77	186
1494.11	204
1499.45	174
1504.78	172
1510.11	168
1515.43	166
1520.74	168
1526.05	176
1531.36	174
1536.66	170
1541.95	170
1547.24	178
1552.52	172
1557.8	172
1563.08	180
1568.35	182
1573.61	194
1578.87	276
1584.12	410
1589.37	256
1594.61	310
1599.85	614
1605.08	548
1610.31	276
1615.53	210
1620.75	180
1625.96	164
1631.17	150
1636.37	144
1641.57	168
1646.76	160
1651.95	148
1657.13	136
1662.31	140
1667.48	138
1672.65	136
1677.81	134
1682.97	132
1688.12	140
1693.27	134
1698.41	118
1702.26	122