File: Jesse_Dataset_v2/Pure Raman/Polystyrene/785nm/ps-ppo-6jan25-1,0000-map3_Y09_X05.txt
204.377	816
211.048	896
217.712	910
224.369	872
231.019	718
237.661	538
244.297	388
250.924	302
257.546	294
264.16	272
270.766	244
277.365	230
283.958	220
290.543	186
297.121	170
303.693	172
310.256	166
316.813	184
323.362	172
329.905	172
336.441	164
342.969	166
349.491	156
356.006	152
362.513	150
369.014	160
375.508	170
381.994	182
388.473	198
394.947	210
401.412	220
407.871	230
414.323	194
420.768	162
427.206	152
433.637	146
440.062	126
446.479	138
452.89	114
459.293	104
465.691	104
472.081	108
478.463	110
484.84	96
491.21	96
497.573	102
503.929	122
510.279	114
516.621	104
522.957	124
529.287	130
535.609	134
541.925	146
548.234	144
554.536	146
560.832	138
567.12	138
573.403	144
579.679	128
585.948	110
592.211	116
598.466	114
604.715	136
610.958	150
617.194	322
623.424	448
629.647	150
635.864	110
642.074	94
648.276	82
654.473	78
660.664	74
666.847	78
673.025	80
679.195	78
685.36	76
691.517	74
697.669	86
703.814	108
709.953	100
716.085	104
722.21	136
728.33	120
734.443	140
740.549	188
746.65	172
752.743	216
758.831	230
764.912	222
770.986	180
777.055	204
783.117	248
789.173	308
795.222	356
801.265	282
807.302	206
813.333	168
819.357	124
825.376	110
831.387	116
837.392	136
843.392	158
849.386	140
855.372	132
861.353	118
867.328	118
873.296	120
879.258	120
885.214	110
891.164	110
897.108	112
903.046	136
908.977	136
914.903	116
920.822	96
926.735	100
932.643	106
938.543	104
944.439	106
950.328	94
956.21	102
962.088	126
967.958	136
973.824	134
979.682	178
985.534	274
991.382	784
997.222	1236
1003.06	2844
1008.89	448
1014.71	186
1020.53	210
1026.34	490
1032.14	886
1037.94	400
1043.73	202
1049.52	162
1055.3	150
1061.08	168
1066.85	170
1072.61	172
1078.37	170
1084.12	170
1089.87	154
1095.61	166
1101.34	162
1107.07	144
1112.8	130
1118.51	124
1124.22	104
1129.93	112
1135.63	120
1141.32	124
1147.01	172
1152.69	340
1158.37	334
1164.04	202
1169.71	222
1175.37	304
1181.02	498
1186.67	438
1192.31	488
1197.95	516
1203.58	442
1209.2	328
1214.82	236
1220.44	212
1226.05	202
1231.65	186
1237.25	162
1242.84	182
1248.42	170
1254	174
1259.58	166
1265.15	176
1270.71	182
1276.27	172
1281.82	178
1287.37	182
1292.91	184
1298.45	216
1303.98	216
1309.5	232
1315.02	262
1320.53	274
1326.04	282
1331.54	296
1337.04	290
1342.53	274
1348.02	268
1353.5	268
1358.98	272
1364.45	270
1369.91	282
1375.37	284
1380.82	266
1386.27	252
1391.71	252
1397.15	244
1402.58	232
1408.01	234
1413.43	218
1418.85	224
1424.26	212
1429.66	234
1435.06	248
1440.46	296
1445.85	328
1451.23	332
1456.61	266
1461.98	218
1467.35	194
1472.71	192
1478.07	184
1483.42	168
1488.77	196
1494.11	188
1499.45	172
1504.78	166
1510.11	162
1515.43	162
1520.74	162
1526.05	164
1531.36	166
1536.66	170
1541.95	176
1547.24	160
1552.52	168
1557.8	162
1563.08	170
1568.35	180
1573.61	202
1578.87	268
1584.12	378
1589.37	258
1594.61	316
1599.85	628
1605.08	562
1610.31	276
1615.53	202
1620.75	180
1625.96	164
1631.17	150
1636.37	158
1641.57	154
1646.76	158
1651.95	146
1657.13	142
1662.31	144
1667.48	142
1672.65	130
1677.81	132
1682.97	130
1688.12	136
1693.27	120
1698.41	124
1702.26	118