File: Jesse_Dataset_v2/Pure Raman/Polystyrene/785nm/ps-ppo-6jan25-1,0000-map3_Y10_X07.txt
204.377	840
211.048	864
217.712	904
224.369	874
231.019	734
237.661	534
244.297	372
250.924	308
257.546	272
264.16	256
270.766	266
277.365	236
283.958	226
290.543	188
297.121	172
303.693	162
310.256	166
316.813	180
323.362	166
329.905	172
336.441	158
342.969	168
349.491	170
356.006	152
362.513	152
369.014	166
375.508	172
381.994	176
388.473	178
394.947	204
401.412	224
407.871	226
414.323	198
420.768	184
427.206	148
433.637	156
440.062	138
446.479	130
452.89	114
459.293	116
465.691	114
472.081	112
478.463	116
484.84	104
491.21	98
497.573	100
503.929	102
510.279	104
516.621	116
522.957	112
529.287	116
535.609	152
541.925	156
548.234	146
554.536	136
560.832	136
567.12	126
573.403	140
579.679	126
585.948	110
592.211	116
598.466	116
604.715	136
610.958	142
617.194	336
623.424	454
629.647	150
635.864	104
642.074	90
648.276	80
654.473	76
660.664	78
666.847	80
673.025	74
679.195	84
685.36	76
691.517	76
697.669	78
703.814	98
709.953	98
716.085	90
722.21	134
728.33	138
734.443	132
740.549	174
746.65	186
752.743	202
758.831	222
764.912	226
770.986	200
777.055	204
783.117	258
789.173	316
795.222	350
801.265	280
807.302	198
813.333	154
819.357	132
825.376	104
831.387	112
837.392	146
843.392	162
849.386	138
855.372	120
861.353	120
867.328	120
873.296	124
879.258	124
885.214	112
891.164	120
897.108	110
903.046	142
908.977	132
914.903	120
920.822	102
926.735	106
932.643	102
938.543	92
944.439	102
950.328	100
956.21	104
962.088	112
967.958	132
973.824	144
979.682	180
985.534	292
991.382	786
997.222	1252
1003.06	2810
1008.89	414
1014.71	182
1020.53	226
1026.34	512
1032.14	902
1037.94	394
1043.73	208
1049.52	160
1055.3	164
1061.08	158
1066.85	168
1072.61	172
1078.37	180
1084.12	154
1089.87	164
1095.61	164
1101.34	172
1107.07	142
1112.8	134
1118.51	128
1124.22	108
1129.93	104
1135.63	112
1141.32	144
1147.01	170
1152.69	370
1158.37	358
1164.04	210
1169.71	210
1175.37	304
1181.02	528
1186.67	456
1192.31	478
1197.95	504
1203.58	440
1209.2	326
1214.82	248
1220.44	208
1226.05	202
1231.65	180
1237.25	178
1242.84	166
1248.42	168
1254	168
1259.58	178
1265.15	146
1270.71	168
1276.27	168
1281.82	168
1287.37	184
1292.91	200
1298.45	200
1303.98	218
1309.5	228
1315.02	234
1320.53	274
1326.04	284
1331.54	282
1337.04	290
1342.53	282
1348.02	272
1353.5	276
1358.98	278
1364.45	286
1369.91	284
1375.37	280
1380.82	268
1386.27	268
1391.71	244
1397.15	238
1402.58	240
1408.01	228
1413.43	222
1418.85	244
1424.26	216
1429.66	246
1435.06	256
1440.46	296
1445.85	330
1451.23	338
1456.61	280
1461.98	228
1467.35	212
1472.71	196
1478.07	192
1483.42	190
1488.77	180
1494.11	192
1499.45	180
1504.78	182
1510.11	180
1515.43	160
1520.74	172
1526.05	182
1531.36	162
1536.66	176
1541.95	174
1547.24	164
1552.52	160
1557.8	170
1563.08	168
1568.35	186
1573.61	200
1578.87	288
1584.12	398
1589.37	246
1594.61	322
1599.85	644
1605.08	542
1610.31	280
1615.53	214
1620.75	164
1625.96	168
1631.17	154
1636.37	152
1641.57	152
1646.76	154
1651.95	164
1657.13	142
1662.31	138
1667.48	136
1672.65	126
1677.81	128
1682.97	120
1688.12	128
1693.27	122
1698.41	126
1702.26	122