File: Jesse_Dataset_v2/Pure Raman/Polystyrene/785nm/ps-ppo-6jan25-1,0000-map3_Y09_X00.txt
204.377	816
211.048	878
217.712	890
224.369	880
231.019	710
237.661	544
244.297	396
250.924	312
257.546	266
264.16	266
270.766	248
277.365	236
283.958	222
290.543	186
297.121	168
303.693	158
310.256	152
316.813	166
323.362	176
329.905	170
336.441	174
342.969	156
349.491	138
356.006	158
362.513	150
369.014	144
375.508	166
381.994	178
388.473	184
394.947	192
401.412	214
407.871	222
414.323	194
420.768	166
427.206	152
433.637	152
440.062	130
446.479	128
452.89	114
459.293	110
465.691	100
472.081	106
478.463	108
484.84	98
491.21	96
497.573	102
503.929	104
510.279	108
516.621	114
522.957	116
529.287	130
535.609	146
541.925	150
548.234	148
554.536	146
560.832	142
567.12	128
573.403	138
579.679	118
585.948	120
592.211	108
598.466	128
604.715	138
610.958	136
617.194	294
623.424	470
629.647	142
635.864	102
642.074	90
648.276	82
654.473	78
660.664	74
666.847	76
673.025	74
679.195	72
685.36	74
691.517	74
697.669	82
703.814	104
709.953	104
716.085	94
722.21	128
728.33	132
734.443	140
740.549	190
746.65	194
752.743	212
758.831	218
764.912	206
770.986	190
777.055	204
783.117	234
789.173	326
795.222	328
801.265	268
807.302	194
813.333	162
819.357	118
825.376	116
831.387	110
837.392	140
843.392	152
849.386	126
855.372	122
861.353	122
867.328	112
873.296	122
879.258	122
885.214	106
891.164	124
897.108	108
903.046	126
908.977	150
914.903	124
920.822	106
926.735	102
932.643	94
938.543	104
944.439	108
950.328	108
956.21	106
962.088	110
967.958	128
973.824	132
979.682	184
985.534	264
991.382	764
997.222	1270
1003.06	2882
1008.89	446
1014.71	192
1020.53	234
1026.34	494
1032.14	902
1037.94	408
1043.73	210
1049.52	164
1055.3	156
1061.08	172
1066.85	172
1072.61	176
1078.37	172
1084.12	162
1089.87	168
1095.61	168
1101.34	164
1107.07	130
1112.8	128
1118.51	122
1124.22	108
1129.93	98
1135.63	110
1141.32	130
1147.01	160
1152.69	342
1158.37	336
1164.04	200
1169.71	216
1175.37	300
1181.02	540
1186.67	436
1192.31	478
1197.95	514
1203.58	464
1209.2	314
1214.82	232
1220.44	184
1226.05	196
1231.65	186
1237.25	168
1242.84	174
1248.42	170
1254	148
1259.58	160
1265.15	170
1270.71	164
1276.27	164
1281.82	170
1287.37	178
1292.91	192
1298.45	204
1303.98	212
1309.5	212
1315.02	252
1320.53	264
1326.04	302
1331.54	286
1337.04	272
1342.53	254
1348.02	268
1353.5	240
1358.98	268
1364.45	284
1369.91	274
1375.37	280
1380.82	270
1386.27	242
1391.71	214
1397.15	220
1402.58	228
1408.01	212
1413.43	212
1418.85	222
1424.26	212
1429.66	218
1435.06	236
1440.46	286
1445.85	334
1451.23	338
1456.61	272
1461.98	202
1467.35	194
1472.71	176
1478.07	172
1483.42	176
1488.77	178
1494.11	174
1499.45	176
1504.78	168
1510.11	160
1515.43	152
1520.74	162
1526.05	160
1531.36	162
1536.66	158
1541.95	166
1547.24	150
1552.52	164
1557.8	154
1563.08	166
1568.35	166
1573.61	186
1578.87	282
1584.12	394
1589.37	246
1594.61	316
1599.85	610
1605.08	554
1610.31	268
1615.53	198
1620.75	178
1625.96	154
1631.17	154
1636.37	148
1641.57	150
1646.76	148
1651.95	142
1657.13	134
1662.31	128
1667.48	132
1672.65	132
1677.81	136
1682.97	124
1688.12	114
1693.27	126
1698.41	118
1702.26	108