File: Jesse_Dataset_v2/Pure Raman/Polystyrene/785nm/ps-ppo-6jan25-1,0000-map3_Y03_X04.txt
204.377	822
211.048	872
217.712	912
224.369	860
231.019	708
237.661	536
244.297	388
250.924	286
257.546	272
264.16	246
270.766	236
277.365	224
283.958	206
290.543	184
297.121	170
303.693	178
310.256	162
316.813	162
323.362	166
329.905	154
336.441	160
342.969	160
349.491	154
356.006	152
362.513	138
369.014	156
375.508	154
381.994	172
388.473	182
394.947	194
401.412	210
407.871	214
414.323	196
420.768	154
427.206	150
433.637	138
440.062	124
446.479	130
452.89	116
459.293	106
465.691	110
472.081	88
478.463	96
484.84	90
491.21	94
497.573	102
503.929	108
510.279	92
516.621	106
522.957	106
529.287	108
535.609	134
541.925	136
548.234	132
554.536	134
560.832	132
567.12	132
573.403	140
579.679	110
585.948	110
592.211	106
598.466	116
604.715	124
610.958	126
617.194	312
623.424	458
629.647	132
635.864	106
642.074	90
648.276	84
654.473	74
660.664	76
666.847	70
673.025	72
679.195	72
685.36	70
691.517	76
697.669	90
703.814	94
709.953	98
716.085	104
722.21	130
728.33	132
734.443	138
740.549	174
746.65	178
752.743	206
758.831	236
764.912	224
770.986	210
777.055	190
783.117	226
789.173	300
795.222	362
801.265	282
807.302	192
813.333	156
819.357	122
825.376	110
831.387	118
837.392	150
843.392	152
849.386	132
855.372	122
861.353	118
867.328	118
873.296	112
879.258	114
885.214	110
891.164	106
897.108	124
903.046	144
908.977	138
914.903	112
920.822	90
926.735	96
932.643	100
938.543	90
944.439	92
950.328	96
956.21	102
962.088	128
967.958	112
973.824	132
979.682	182
985.534	278
991.382	756
997.222	1242
1003.06	2848
1008.89	438
1014.71	196
1020.53	226
1026.34	510
1032.14	896
1037.94	408
1043.73	202
1049.52	176
1055.3	150
1061.08	154
1066.85	158
1072.61	170
1078.37	160
1084.12	158
1089.87	164
1095.61	170
1101.34	158
1107.07	142
1112.8	126
1118.51	112
1124.22	104
1129.93	106
1135.63	114
1141.32	126
1147.01	170
1152.69	348
1158.37	336
1164.04	206
1169.71	206
1175.37	282
1181.02	498
1186.67	410
1192.31	458
1197.95	506
1203.58	434
1209.2	308
1214.82	230
1220.44	198
1226.05	202
1231.65	168
1237.25	170
1242.84	166
1248.42	170
1254	168
1259.58	150
1265.15	166
1270.71	160
1276.27	174
1281.82	168
1287.37	174
1292.91	194
1298.45	206
1303.98	196
1309.5	238
1315.02	228
1320.53	254
1326.04	284
1331.54	282
1337.04	286
1342.53	270
1348.02	254
1353.5	270
1358.98	276
1364.45	292
1369.91	286
1375.37	280
1380.82	242
1386.27	238
1391.71	228
1397.15	218
1402.58	228
1408.01	226
1413.43	220
1418.85	212
1424.26	210
1429.66	226
1435.06	244
1440.46	282
1445.85	310
1451.23	326
1456.61	278
1461.98	208
1467.35	202
1472.71	178
1478.07	174
1483.42	178
1488.77	174
1494.11	176
1499.45	174
1504.78	158
1510.11	168
1515.43	174
1520.74	164
1526.05	156
1531.36	154
1536.66	152
1541.95	164
1547.24	162
1552.52	158
1557.8	160
1563.08	168
1568.35	178
1573.61	210
1578.87	268
1584.12	384
1589.37	246
1594.61	282
1599.85	610
1605.08	568
1610.31	268
1615.53	198
1620.75	184
1625.96	156
1631.17	150
1636.37	146
1641.57	148
1646.76	148
1651.95	146
1657.13	132
1662.31	134
1667.48	132
1672.65	128
1677.81	120
1682.97	118
1688.12	126
1693.27	124
1698.41	120
1702.26	122