File: Jesse_Dataset_v2/Pure Raman/Polystyrene/785nm/ps-ppo-6jan25-1,0000-map3_Y05_X03.txt
204.377	860
211.048	898
217.712	938
224.369	860
231.019	720
237.661	566
244.297	356
250.924	330
257.546	294
264.16	292
270.766	250
277.365	242
283.958	224
290.543	204
297.121	184
303.693	172
310.256	174
316.813	186
323.362	196
329.905	176
336.441	188
342.969	178
349.491	170
356.006	158
362.513	150
369.014	164
375.508	172
381.994	182
388.473	172
394.947	196
401.412	230
407.871	248
414.323	208
420.768	180
427.206	158
433.637	162
440.062	148
446.479	130
452.89	138
459.293	122
465.691	110
472.081	114
478.463	118
484.84	114
491.21	112
497.573	112
503.929	112
510.279	120
516.621	124
522.957	124
529.287	142
535.609	152
541.925	164
548.234	156
554.536	148
560.832	148
567.12	136
573.403	150
579.679	130
585.948	118
592.211	122
598.466	126
604.715	140
610.958	158
617.194	320
623.424	462
629.647	170
635.864	102
642.074	98
648.276	94
654.473	78
660.664	84
666.847	90
673.025	88
679.195	74
685.36	84
691.517	84
697.669	92
703.814	110
709.953	94
716.085	106
722.21	142
728.33	142
734.443	142
740.549	190
746.65	196
752.743	218
758.831	230
764.912	226
770.986	198
777.055	208
783.117	238
789.173	328
795.222	350
801.265	268
807.302	210
813.333	164
819.357	140
825.376	122
831.387	120
837.392	154
843.392	162
849.386	136
855.372	126
861.353	132
867.328	140
873.296	132
879.258	126
885.214	106
891.164	128
897.108	116
903.046	148
908.977	146
914.903	126
920.822	102
926.735	100
932.643	102
938.543	94
944.439	108
950.328	104
956.21	110
962.088	122
967.958	134
973.824	124
979.682	182
985.534	274
991.382	774
997.222	1190
1003.06	2870
1008.89	420
1014.71	188
1020.53	230
1026.34	518
1032.14	928
1037.94	402
1043.73	224
1049.52	174
1055.3	154
1061.08	160
1066.85	170
1072.61	180
1078.37	178
1084.12	170
1089.87	162
1095.61	176
1101.34	174
1107.07	142
1112.8	136
1118.51	120
1124.22	122
1129.93	108
1135.63	106
1141.32	132
1147.01	166
1152.69	366
1158.37	348
1164.04	220
1169.71	220
1175.37	294
1181.02	532
1186.67	438
1192.31	496
1197.95	508
1203.58	450
1209.2	328
1214.82	236
1220.44	210
1226.05	188
1231.65	182
1237.25	174
1242.84	178
1248.42	170
1254	156
1259.58	174
1265.15	166
1270.71	162
1276.27	184
1281.82	174
1287.37	182
1292.91	206
1298.45	208
1303.98	216
1309.5	230
1315.02	230
1320.53	282
1326.04	304
1331.54	306
1337.04	302
1342.53	260
1348.02	256
1353.5	260
1358.98	262
1364.45	266
1369.91	284
1375.37	270
1380.82	262
1386.27	244
1391.71	230
1397.15	226
1402.58	244
1408.01	224
1413.43	232
1418.85	218
1424.26	196
1429.66	230
1435.06	252
1440.46	276
1445.85	318
1451.23	326
1456.61	272
1461.98	210
1467.35	190
1472.71	196
1478.07	190
1483.42	172
1488.77	178
1494.11	188
1499.45	182
1504.78	176
1510.11	178
1515.43	158
1520.74	172
1526.05	160
1531.36	164
1536.66	164
1541.95	170
1547.24	160
1552.52	154
1557.8	166
1563.08	170
1568.35	174
1573.61	182
1578.87	266
1584.12	406
1589.37	240
1594.61	294
1599.85	622
1605.08	584
1610.31	278
1615.53	202
1620.75	170
1625.96	158
1631.17	148
1636.37	154
1641.57	150
1646.76	144
1651.95	134
1657.13	140
1662.31	128
1667.48	120
1672.65	126
1677.81	130
1682.97	122
1688.12	122
1693.27	124
1698.41	108
1702.26	108