File: Jesse_Dataset_v2/Pure Raman/Polystyrene/785nm/ps-ppo-6jan25-1,0000-map3_Y09_X03.txt
204.377	820
211.048	892
217.712	944
224.369	886
231.019	736
237.661	522
244.297	390
250.924	292
257.546	274
264.16	258
270.766	258
277.365	232
283.958	204
290.543	176
297.121	176
303.693	174
310.256	164
316.813	158
323.362	164
329.905	166
336.441	158
342.969	152
349.491	146
356.006	150
362.513	152
369.014	158
375.508	158
381.994	176
388.473	190
394.947	182
401.412	218
407.871	198
414.323	178
420.768	172
427.206	140
433.637	138
440.062	140
446.479	118
452.89	124
459.293	108
465.691	118
472.081	106
478.463	92
484.84	90
491.21	104
497.573	102
503.929	106
510.279	108
516.621	114
522.957	112
529.287	126
535.609	138
541.925	136
548.234	128
554.536	146
560.832	140
567.12	130
573.403	144
579.679	124
585.948	100
592.211	106
598.466	106
604.715	120
610.958	140
617.194	310
623.424	460
629.647	148
635.864	114
642.074	74
648.276	86
654.473	78
660.664	76
666.847	72
673.025	80
679.195	74
685.36	78
691.517	76
697.669	88
703.814	98
709.953	96
716.085	84
722.21	142
728.33	126
734.443	132
740.549	182
746.65	188
752.743	204
758.831	246
764.912	206
770.986	200
777.055	206
783.117	240
789.173	312
795.222	356
801.265	274
807.302	194
813.333	152
819.357	122
825.376	106
831.387	122
837.392	142
843.392	150
849.386	132
855.372	120
861.353	118
867.328	134
873.296	114
879.258	116
885.214	122
891.164	120
897.108	108
903.046	146
908.977	142
914.903	124
920.822	98
926.735	96
932.643	98
938.543	94
944.439	94
950.328	98
956.21	102
962.088	116
967.958	116
973.824	142
979.682	178
985.534	274
991.382	770
997.222	1212
1003.06	2874
1008.89	448
1014.71	192
1020.53	222
1026.34	500
1032.14	874
1037.94	390
1043.73	204
1049.52	156
1055.3	156
1061.08	160
1066.85	178
1072.61	178
1078.37	176
1084.12	154
1089.87	160
1095.61	160
1101.34	158
1107.07	148
1112.8	134
1118.51	118
1124.22	108
1129.93	108
1135.63	112
1141.32	134
1147.01	174
1152.69	364
1158.37	354
1164.04	222
1169.71	208
1175.37	308
1181.02	534
1186.67	432
1192.31	488
1197.95	520
1203.58	434
1209.2	304
1214.82	228
1220.44	214
1226.05	212
1231.65	184
1237.25	164
1242.84	168
1248.42	166
1254	158
1259.58	162
1265.15	170
1270.71	166
1276.27	170
1281.82	180
1287.37	164
1292.91	178
1298.45	196
1303.98	220
1309.5	218
1315.02	234
1320.53	276
1326.04	290
1331.54	298
1337.04	292
1342.53	254
1348.02	258
1353.5	264
1358.98	272
1364.45	266
1369.91	280
1375.37	270
1380.82	256
1386.27	244
1391.71	242
1397.15	222
1402.58	244
1408.01	232
1413.43	232
1418.85	212
1424.26	218
1429.66	218
1435.06	258
1440.46	276
1445.85	302
1451.23	320
1456.61	254
1461.98	212
1467.35	186
1472.71	196
1478.07	188
1483.42	172
1488.77	202
1494.11	188
1499.45	162
1504.78	164
1510.11	166
1515.43	174
1520.74	158
1526.05	160
1531.36	156
1536.66	160
1541.95	164
1547.24	148
1552.52	158
1557.8	168
1563.08	156
1568.35	180
1573.61	198
1578.87	272
1584.12	394
1589.37	250
1594.61	290
1599.85	624
1605.08	550
1610.31	276
1615.53	200
1620.75	158
1625.96	168
1631.17	150
1636.37	142
1641.57	138
1646.76	144
1651.95	132
1657.13	146
1662.31	130
1667.48	130
1672.65	136
1677.81	120
1682.97	126
1688.12	132
1693.27	116
1698.41	112
1702.26	110