File: Jesse_Dataset_v2/Pure Raman/Polystyrene/785nm/ps-ppo-6jan25-1,0000-map3_Y04_X01.txt
204.377	836
211.048	894
217.712	922
224.369	872
231.019	698
237.661	548
244.297	386
250.924	298
257.546	272
264.16	242
270.766	242
277.365	238
283.958	200
290.543	174
297.121	172
303.693	150
310.256	166
316.813	168
323.362	156
329.905	156
336.441	160
342.969	158
349.491	140
356.006	146
362.513	142
369.014	148
375.508	152
381.994	174
388.473	172
394.947	196
401.412	204
407.871	236
414.323	200
420.768	154
427.206	136
433.637	140
440.062	134
446.479	132
452.89	110
459.293	100
465.691	106
472.081	96
478.463	100
484.84	98
491.21	84
497.573	106
503.929	108
510.279	112
516.621	100
522.957	114
529.287	120
535.609	144
541.925	144
548.234	128
554.536	134
560.832	140
567.12	136
573.403	146
579.679	114
585.948	98
592.211	112
598.466	118
604.715	124
610.958	142
617.194	312
623.424	456
629.647	144
635.864	102
642.074	82
648.276	82
654.473	80
660.664	76
666.847	82
673.025	74
679.195	70
685.36	64
691.517	80
697.669	82
703.814	104
709.953	74
716.085	88
722.21	130
728.33	120
734.443	128
740.549	172
746.65	186
752.743	212
758.831	236
764.912	218
770.986	202
777.055	194
783.117	238
789.173	304
795.222	338
801.265	290
807.302	188
813.333	160
819.357	126
825.376	102
831.387	104
837.392	140
843.392	168
849.386	142
855.372	116
861.353	136
867.328	124
873.296	124
879.258	122
885.214	102
891.164	118
897.108	112
903.046	128
908.977	150
914.903	118
920.822	104
926.735	94
932.643	102
938.543	102
944.439	94
950.328	100
956.21	100
962.088	118
967.958	118
973.824	134
979.682	176
985.534	282
991.382	758
997.222	1202
1003.06	2882
1008.89	424
1014.71	190
1020.53	228
1026.34	486
1032.14	866
1037.94	408
1043.73	202
1049.52	160
1055.3	154
1061.08	144
1066.85	168
1072.61	174
1078.37	176
1084.12	170
1089.87	164
1095.61	166
1101.34	166
1107.07	136
1112.8	128
1118.51	110
1124.22	110
1129.93	106
1135.63	112
1141.32	130
1147.01	162
1152.69	344
1158.37	348
1164.04	208
1169.71	198
1175.37	296
1181.02	528
1186.67	420
1192.31	458
1197.95	490
1203.58	436
1209.2	314
1214.82	218
1220.44	196
1226.05	190
1231.65	182
1237.25	176
1242.84	168
1248.42	164
1254	160
1259.58	160
1265.15	160
1270.71	160
1276.27	160
1281.82	174
1287.37	164
1292.91	178
1298.45	212
1303.98	204
1309.5	232
1315.02	230
1320.53	262
1326.04	276
1331.54	276
1337.04	276
1342.53	252
1348.02	264
1353.5	252
1358.98	266
1364.45	266
1369.91	280
1375.37	266
1380.82	258
1386.27	246
1391.71	230
1397.15	230
1402.58	228
1408.01	222
1413.43	212
1418.85	200
1424.26	208
1429.66	210
1435.06	234
1440.46	270
1445.85	314
1451.23	316
1456.61	270
1461.98	212
1467.35	188
1472.71	184
1478.07	176
1483.42	166
1488.77	170
1494.11	172
1499.45	164
1504.78	156
1510.11	160
1515.43	158
1520.74	154
1526.05	144
1531.36	166
1536.66	144
1541.95	154
1547.24	146
1552.52	154
1557.8	148
1563.08	154
1568.35	172
1573.61	182
1578.87	264
1584.12	396
1589.37	248
1594.61	304
1599.85	604
1605.08	544
1610.31	282
1615.53	196
1620.75	172
1625.96	164
1631.17	154
1636.37	146
1641.57	148
1646.76	136
1651.95	138
1657.13	132
1662.31	130
1667.48	126
1672.65	134
1677.81	124
1682.97	116
1688.12	120
1693.27	116
1698.41	120
1702.26	110