File: Jesse_Dataset_v2/Pure Raman/Polystyrene/785nm/ps-ppo-6jan25-1,0000-map3_Y05_X09.txt
204.377	856
211.048	894
217.712	946
224.369	882
231.019	736
237.661	552
244.297	386
250.924	326
257.546	286
264.16	272
270.766	248
277.365	248
283.958	234
290.543	188
297.121	178
303.693	182
310.256	180
316.813	186
323.362	192
329.905	196
336.441	184
342.969	180
349.491	178
356.006	160
362.513	144
369.014	158
375.508	170
381.994	174
388.473	188
394.947	208
401.412	226
407.871	228
414.323	204
420.768	180
427.206	162
433.637	146
440.062	154
446.479	146
452.89	134
459.293	114
465.691	120
472.081	110
478.463	112
484.84	112
491.21	114
497.573	114
503.929	116
510.279	112
516.621	124
522.957	116
529.287	144
535.609	152
541.925	162
548.234	148
554.536	156
560.832	140
567.12	146
573.403	156
579.679	130
585.948	122
592.211	120
598.466	120
604.715	144
610.958	152
617.194	332
623.424	472
629.647	156
635.864	102
642.074	106
648.276	92
654.473	88
660.664	84
666.847	84
673.025	80
679.195	86
685.36	84
691.517	86
697.669	92
703.814	102
709.953	100
716.085	94
722.21	138
728.33	124
734.443	146
740.549	184
746.65	196
752.743	210
758.831	234
764.912	236
770.986	200
777.055	214
783.117	242
789.173	324
795.222	350
801.265	284
807.302	200
813.333	164
819.357	134
825.376	122
831.387	122
837.392	148
843.392	178
849.386	142
855.372	118
861.353	126
867.328	128
873.296	124
879.258	130
885.214	116
891.164	118
897.108	120
903.046	140
908.977	146
914.903	120
920.822	100
926.735	102
932.643	94
938.543	102
944.439	106
950.328	100
956.21	108
962.088	130
967.958	124
973.824	140
979.682	188
985.534	256
991.382	790
997.222	1242
1003.06	2828
1008.89	452
1014.71	190
1020.53	218
1026.34	488
1032.14	930
1037.94	406
1043.73	200
1049.52	160
1055.3	156
1061.08	158
1066.85	188
1072.61	158
1078.37	170
1084.12	172
1089.87	172
1095.61	164
1101.34	160
1107.07	138
1112.8	128
1118.51	122
1124.22	112
1129.93	110
1135.63	116
1141.32	126
1147.01	164
1152.69	356
1158.37	370
1164.04	208
1169.71	214
1175.37	300
1181.02	552
1186.67	462
1192.31	484
1197.95	494
1203.58	454
1209.2	322
1214.82	236
1220.44	204
1226.05	200
1231.65	182
1237.25	160
1242.84	180
1248.42	170
1254	166
1259.58	166
1265.15	176
1270.71	180
1276.27	178
1281.82	180
1287.37	176
1292.91	198
1298.45	192
1303.98	222
1309.5	236
1315.02	244
1320.53	270
1326.04	298
1331.54	304
1337.04	280
1342.53	284
1348.02	286
1353.5	272
1358.98	278
1364.45	286
1369.91	296
1375.37	278
1380.82	282
1386.27	254
1391.71	236
1397.15	250
1402.58	248
1408.01	240
1413.43	234
1418.85	228
1424.26	222
1429.66	234
1435.06	270
1440.46	278
1445.85	318
1451.23	332
1456.61	290
1461.98	212
1467.35	204
1472.71	192
1478.07	192
1483.42	186
1488.77	186
1494.11	186
1499.45	182
1504.78	174
1510.11	176
1515.43	186
1520.74	170
1526.05	190
1531.36	166
1536.66	182
1541.95	168
1547.24	168
1552.52	168
1557.8	166
1563.08	176
1568.35	178
1573.61	194
1578.87	270
1584.12	422
1589.37	246
1594.61	308
1599.85	620
1605.08	532
1610.31	284
1615.53	206
1620.75	182
1625.96	168
1631.17	160
1636.37	164
1641.57	154
1646.76	160
1651.95	146
1657.13	150
1662.31	146
1667.48	138
1672.65	138
1677.81	136
1682.97	132
1688.12	138
1693.27	136
1698.41	122
1702.26	126