File: Jesse_Dataset_v2/Pure Raman/Polystyrene/785nm/ps-ppo-6jan25-1,0000-map3_Y01_X04.txt
204.377	804
211.048	888
217.712	930
224.369	870
231.019	740
237.661	528
244.297	372
250.924	320
257.546	280
264.16	258
270.766	256
277.365	212
283.958	210
290.543	198
297.121	160
303.693	166
310.256	166
316.813	166
323.362	162
329.905	166
336.441	160
342.969	162
349.491	156
356.006	134
362.513	140
369.014	146
375.508	148
381.994	170
388.473	180
394.947	184
401.412	216
407.871	200
414.323	176
420.768	152
427.206	146
433.637	142
440.062	134
446.479	128
452.89	114
459.293	114
465.691	108
472.081	98
478.463	102
484.84	98
491.21	96
497.573	100
503.929	102
510.279	102
516.621	102
522.957	106
529.287	114
535.609	138
541.925	152
548.234	134
554.536	130
560.832	136
567.12	130
573.403	126
579.679	108
585.948	112
592.211	108
598.466	104
604.715	132
610.958	152
617.194	326
623.424	476
629.647	144
635.864	100
642.074	80
648.276	74
654.473	70
660.664	68
666.847	74
673.025	74
679.195	70
685.36	80
691.517	70
697.669	86
703.814	92
709.953	102
716.085	82
722.21	130
728.33	112
734.443	136
740.549	186
746.65	176
752.743	220
758.831	226
764.912	230
770.986	180
777.055	200
783.117	246
789.173	296
795.222	328
801.265	284
807.302	190
813.333	154
819.357	120
825.376	102
831.387	116
837.392	140
843.392	152
849.386	134
855.372	124
861.353	118
867.328	126
873.296	116
879.258	116
885.214	110
891.164	102
897.108	116
903.046	146
908.977	142
914.903	120
920.822	104
926.735	92
932.643	104
938.543	104
944.439	94
950.328	106
956.21	96
962.088	120
967.958	120
973.824	142
979.682	194
985.534	272
991.382	772
997.222	1206
1003.06	2948
1008.89	442
1014.71	186
1020.53	216
1026.34	488
1032.14	866
1037.94	400
1043.73	204
1049.52	154
1055.3	144
1061.08	148
1066.85	166
1072.61	170
1078.37	164
1084.12	156
1089.87	158
1095.61	170
1101.34	162
1107.07	146
1112.8	132
1118.51	120
1124.22	102
1129.93	98
1135.63	106
1141.32	130
1147.01	168
1152.69	354
1158.37	344
1164.04	226
1169.71	222
1175.37	300
1181.02	512
1186.67	414
1192.31	470
1197.95	486
1203.58	440
1209.2	328
1214.82	232
1220.44	208
1226.05	192
1231.65	180
1237.25	168
1242.84	166
1248.42	160
1254	164
1259.58	156
1265.15	164
1270.71	160
1276.27	158
1281.82	180
1287.37	182
1292.91	198
1298.45	198
1303.98	222
1309.5	230
1315.02	246
1320.53	246
1326.04	282
1331.54	278
1337.04	288
1342.53	264
1348.02	258
1353.5	278
1358.98	262
1364.45	250
1369.91	264
1375.37	268
1380.82	260
1386.27	246
1391.71	232
1397.15	236
1402.58	236
1408.01	226
1413.43	232
1418.85	226
1424.26	216
1429.66	228
1435.06	234
1440.46	272
1445.85	326
1451.23	338
1456.61	264
1461.98	206
1467.35	200
1472.71	190
1478.07	170
1483.42	174
1488.77	162
1494.11	182
1499.45	164
1504.78	164
1510.11	168
1515.43	174
1520.74	164
1526.05	154
1531.36	166
1536.66	164
1541.95	160
1547.24	164
1552.52	150
1557.8	172
1563.08	174
1568.35	170
1573.61	202
1578.87	256
1584.12	414
1589.37	246
1594.61	304
1599.85	600
1605.08	570
1610.31	284
1615.53	200
1620.75	174
1625.96	158
1631.17	150
1636.37	148
1641.57	146
1646.76	158
1651.95	138
1657.13	142
1662.31	122
1667.48	120
1672.65	130
1677.81	128
1682.97	132
1688.12	118
1693.27	126
1698.41	130
1702.26	108