File: Jesse_Dataset_v2/Pure Raman/Polystyrene/785nm/ps-ppo-6jan25-1,0000-map3_Y09_X06.txt
204.377	858
211.048	900
217.712	924
224.369	894
231.019	712
237.661	528
244.297	396
250.924	314
257.546	280
264.16	250
270.766	248
277.365	254
283.958	212
290.543	190
297.121	182
303.693	156
310.256	166
316.813	166
323.362	170
329.905	168
336.441	176
342.969	164
349.491	156
356.006	140
362.513	156
369.014	160
375.508	158
381.994	178
388.473	178
394.947	192
401.412	204
407.871	226
414.323	206
420.768	172
427.206	152
433.637	152
440.062	142
446.479	124
452.89	116
459.293	118
465.691	118
472.081	104
478.463	102
484.84	100
491.21	104
497.573	106
503.929	102
510.279	102
516.621	100
522.957	118
529.287	116
535.609	138
541.925	154
548.234	142
554.536	134
560.832	130
567.12	134
573.403	142
579.679	120
585.948	114
592.211	110
598.466	112
604.715	134
610.958	148
617.194	336
623.424	446
629.647	138
635.864	104
642.074	90
648.276	88
654.473	80
660.664	78
666.847	78
673.025	74
679.195	76
685.36	74
691.517	84
697.669	94
703.814	100
709.953	102
716.085	100
722.21	140
728.33	136
734.443	136
740.549	178
746.65	174
752.743	208
758.831	240
764.912	218
770.986	216
777.055	196
783.117	246
789.173	328
795.222	344
801.265	294
807.302	188
813.333	150
819.357	116
825.376	112
831.387	120
837.392	146
843.392	160
849.386	142
855.372	106
861.353	126
867.328	126
873.296	112
879.258	118
885.214	120
891.164	116
897.108	116
903.046	140
908.977	132
914.903	122
920.822	100
926.735	96
932.643	90
938.543	94
944.439	104
950.328	92
956.21	98
962.088	118
967.958	132
973.824	130
979.682	190
985.534	274
991.382	790
997.222	1258
1003.06	2888
1008.89	438
1014.71	194
1020.53	232
1026.34	512
1032.14	894
1037.94	402
1043.73	198
1049.52	170
1055.3	160
1061.08	156
1066.85	176
1072.61	172
1078.37	158
1084.12	156
1089.87	166
1095.61	160
1101.34	168
1107.07	136
1112.8	128
1118.51	116
1124.22	110
1129.93	104
1135.63	108
1141.32	136
1147.01	178
1152.69	342
1158.37	346
1164.04	216
1169.71	218
1175.37	296
1181.02	516
1186.67	440
1192.31	488
1197.95	484
1203.58	422
1209.2	320
1214.82	230
1220.44	212
1226.05	200
1231.65	188
1237.25	168
1242.84	176
1248.42	168
1254	170
1259.58	180
1265.15	172
1270.71	172
1276.27	174
1281.82	180
1287.37	174
1292.91	208
1298.45	200
1303.98	216
1309.5	246
1315.02	256
1320.53	276
1326.04	292
1331.54	290
1337.04	296
1342.53	280
1348.02	276
1353.5	280
1358.98	272
1364.45	270
1369.91	288
1375.37	286
1380.82	276
1386.27	258
1391.71	234
1397.15	230
1402.58	238
1408.01	224
1413.43	226
1418.85	236
1424.26	242
1429.66	232
1435.06	260
1440.46	278
1445.85	316
1451.23	312
1456.61	284
1461.98	220
1467.35	208
1472.71	196
1478.07	180
1483.42	184
1488.77	184
1494.11	198
1499.45	168
1504.78	188
1510.11	172
1515.43	166
1520.74	166
1526.05	182
1531.36	170
1536.66	166
1541.95	164
1547.24	154
1552.52	150
1557.8	160
1563.08	166
1568.35	188
1573.61	194
1578.87	276
1584.12	416
1589.37	258
1594.61	320
1599.85	588
1605.08	542
1610.31	260
1615.53	208
1620.75	180
1625.96	156
1631.17	160
1636.37	146
1641.57	148
1646.76	148
1651.95	144
1657.13	140
1662.31	140
1667.48	134
1672.65	118
1677.81	134
1682.97	138
1688.12	132
1693.27	126
1698.41	112
1702.26	110