File: Jesse_Dataset_v2/Pure Raman/Polystyrene/785nm/ps-ppo-6jan25-1,0000-map3_Y04_X02.txt
204.377	818
211.048	886
217.712	904
224.369	856
231.019	706
237.661	534
244.297	376
250.924	308
257.546	278
264.16	252
270.766	252
277.365	236
283.958	214
290.543	186
297.121	176
303.693	166
310.256	176
316.813	164
323.362	172
329.905	178
336.441	172
342.969	154
349.491	152
356.006	152
362.513	138
369.014	148
375.508	152
381.994	172
388.473	172
394.947	196
401.412	204
407.871	230
414.323	192
420.768	168
427.206	146
433.637	144
440.062	140
446.479	124
452.89	108
459.293	110
465.691	110
472.081	106
478.463	94
484.84	102
491.21	92
497.573	98
503.929	106
510.279	94
516.621	108
522.957	108
529.287	128
535.609	128
541.925	148
548.234	140
554.536	136
560.832	124
567.12	132
573.403	140
579.679	112
585.948	110
592.211	108
598.466	100
604.715	134
610.958	138
617.194	318
623.424	460
629.647	128
635.864	102
642.074	88
648.276	78
654.473	78
660.664	82
666.847	72
673.025	62
679.195	74
685.36	76
691.517	66
697.669	84
703.814	96
709.953	86
716.085	96
722.21	126
728.33	126
734.443	134
740.549	172
746.65	184
752.743	202
758.831	238
764.912	212
770.986	194
777.055	196
783.117	232
789.173	298
795.222	350
801.265	284
807.302	212
813.333	152
819.357	128
825.376	112
831.387	124
837.392	134
843.392	154
849.386	138
855.372	132
861.353	120
867.328	124
873.296	122
879.258	120
885.214	106
891.164	108
897.108	114
903.046	132
908.977	130
914.903	114
920.822	102
926.735	102
932.643	100
938.543	102
944.439	100
950.328	100
956.21	90
962.088	128
967.958	122
973.824	120
979.682	190
985.534	266
991.382	728
997.222	1206
1003.06	2918
1008.89	446
1014.71	186
1020.53	218
1026.34	478
1032.14	864
1037.94	410
1043.73	202
1049.52	154
1055.3	152
1061.08	152
1066.85	168
1072.61	174
1078.37	154
1084.12	168
1089.87	150
1095.61	170
1101.34	174
1107.07	136
1112.8	128
1118.51	118
1124.22	98
1129.93	106
1135.63	102
1141.32	134
1147.01	178
1152.69	360
1158.37	372
1164.04	218
1169.71	198
1175.37	286
1181.02	508
1186.67	434
1192.31	470
1197.95	498
1203.58	440
1209.2	338
1214.82	242
1220.44	186
1226.05	204
1231.65	172
1237.25	174
1242.84	164
1248.42	172
1254	166
1259.58	162
1265.15	158
1270.71	174
1276.27	166
1281.82	172
1287.37	184
1292.91	194
1298.45	202
1303.98	196
1309.5	228
1315.02	232
1320.53	268
1326.04	274
1331.54	296
1337.04	268
1342.53	268
1348.02	260
1353.5	260
1358.98	264
1364.45	266
1369.91	270
1375.37	282
1380.82	268
1386.27	232
1391.71	240
1397.15	222
1402.58	220
1408.01	220
1413.43	214
1418.85	228
1424.26	226
1429.66	208
1435.06	236
1440.46	270
1445.85	336
1451.23	324
1456.61	250
1461.98	192
1467.35	194
1472.71	174
1478.07	182
1483.42	170
1488.77	170
1494.11	178
1499.45	158
1504.78	180
1510.11	170
1515.43	154
1520.74	164
1526.05	148
1531.36	166
1536.66	150
1541.95	168
1547.24	148
1552.52	166
1557.8	170
1563.08	156
1568.35	166
1573.61	198
1578.87	274
1584.12	400
1589.37	238
1594.61	294
1599.85	602
1605.08	538
1610.31	284
1615.53	186
1620.75	148
1625.96	172
1631.17	152
1636.37	152
1641.57	150
1646.76	144
1651.95	142
1657.13	140
1662.31	128
1667.48	132
1672.65	120
1677.81	134
1682.97	126
1688.12	124
1693.27	126
1698.41	122
1702.26	118