File: Jesse_Dataset_v2/Pure Raman/Polystyrene/785nm/ps-ppo-6jan25-1,0000-map3_Y09_X07.txt
204.377	860
211.048	906
217.712	928
224.369	888
231.019	724
237.661	550
244.297	378
250.924	310
257.546	288
264.16	264
270.766	268
277.365	244
283.958	218
290.543	188
297.121	174
303.693	182
310.256	168
316.813	170
323.362	180
329.905	176
336.441	184
342.969	166
349.491	158
356.006	164
362.513	166
369.014	156
375.508	160
381.994	178
388.473	194
394.947	192
401.412	212
407.871	252
414.323	200
420.768	176
427.206	154
433.637	152
440.062	148
446.479	146
452.89	120
459.293	122
465.691	108
472.081	114
478.463	108
484.84	104
491.21	110
497.573	108
503.929	116
510.279	114
516.621	104
522.957	116
529.287	140
535.609	146
541.925	152
548.234	140
554.536	160
560.832	156
567.12	144
573.403	140
579.679	132
585.948	120
592.211	114
598.466	114
604.715	140
610.958	152
617.194	326
623.424	478
629.647	142
635.864	112
642.074	92
648.276	90
654.473	88
660.664	82
666.847	80
673.025	80
679.195	84
685.36	84
691.517	90
697.669	86
703.814	106
709.953	106
716.085	96
722.21	128
728.33	138
734.443	136
740.549	186
746.65	184
752.743	204
758.831	230
764.912	204
770.986	212
777.055	198
783.117	234
789.173	302
795.222	346
801.265	284
807.302	200
813.333	170
819.357	132
825.376	112
831.387	116
837.392	144
843.392	162
849.386	134
855.372	132
861.353	130
867.328	124
873.296	118
879.258	118
885.214	118
891.164	122
897.108	118
903.046	138
908.977	140
914.903	114
920.822	104
926.735	98
932.643	100
938.543	96
944.439	112
950.328	98
956.21	114
962.088	116
967.958	126
973.824	140
979.682	196
985.534	264
991.382	784
997.222	1254
1003.06	2846
1008.89	442
1014.71	186
1020.53	222
1026.34	494
1032.14	900
1037.94	404
1043.73	206
1049.52	160
1055.3	148
1061.08	168
1066.85	184
1072.61	164
1078.37	166
1084.12	174
1089.87	168
1095.61	166
1101.34	180
1107.07	144
1112.8	128
1118.51	112
1124.22	106
1129.93	108
1135.63	114
1141.32	136
1147.01	182
1152.69	360
1158.37	342
1164.04	218
1169.71	200
1175.37	306
1181.02	528
1186.67	442
1192.31	482
1197.95	504
1203.58	414
1209.2	324
1214.82	240
1220.44	218
1226.05	184
1231.65	164
1237.25	176
1242.84	186
1248.42	164
1254	174
1259.58	174
1265.15	188
1270.71	172
1276.27	172
1281.82	164
1287.37	184
1292.91	210
1298.45	214
1303.98	218
1309.5	236
1315.02	244
1320.53	276
1326.04	310
1331.54	304
1337.04	288
1342.53	272
1348.02	280
1353.5	276
1358.98	274
1364.45	280
1369.91	268
1375.37	296
1380.82	278
1386.27	262
1391.71	252
1397.15	244
1402.58	244
1408.01	242
1413.43	216
1418.85	230
1424.26	222
1429.66	236
1435.06	266
1440.46	298
1445.85	328
1451.23	324
1456.61	270
1461.98	238
1467.35	184
1472.71	200
1478.07	194
1483.42	192
1488.77	184
1494.11	190
1499.45	186
1504.78	174
1510.11	170
1515.43	168
1520.74	172
1526.05	170
1531.36	164
1536.66	170
1541.95	154
1547.24	160
1552.52	160
1557.8	172
1563.08	164
1568.35	178
1573.61	188
1578.87	288
1584.12	404
1589.37	252
1594.61	304
1599.85	632
1605.08	562
1610.31	288
1615.53	214
1620.75	184
1625.96	174
1631.17	156
1636.37	148
1641.57	148
1646.76	162
1651.95	148
1657.13	134
1662.31	130
1667.48	136
1672.65	130
1677.81	124
1682.97	132
1688.12	132
1693.27	134
1698.41	116
1702.26	130