File: Jesse_Dataset_v2/Pure Raman/Polystyrene/785nm/ps-ppo-6jan25-1,0000-map3_Y00_X09.txt
204.377	810
211.048	876
217.712	892
224.369	866
231.019	720
237.661	558
244.297	382
250.924	320
257.546	290
264.16	242
270.766	248
277.365	236
283.958	208
290.543	184
297.121	180
303.693	162
310.256	174
316.813	174
323.362	162
329.905	174
336.441	172
342.969	164
349.491	162
356.006	146
362.513	140
369.014	162
375.508	158
381.994	176
388.473	182
394.947	196
401.412	210
407.871	220
414.323	180
420.768	166
427.206	146
433.637	142
440.062	136
446.479	138
452.89	112
459.293	104
465.691	106
472.081	108
478.463	102
484.84	94
491.21	96
497.573	102
503.929	112
510.279	104
516.621	106
522.957	114
529.287	124
535.609	148
541.925	148
548.234	140
554.536	134
560.832	132
567.12	124
573.403	130
579.679	128
585.948	112
592.211	110
598.466	112
604.715	130
610.958	148
617.194	302
623.424	456
629.647	152
635.864	108
642.074	88
648.276	82
654.473	72
660.664	72
666.847	74
673.025	70
679.195	64
685.36	78
691.517	76
697.669	76
703.814	102
709.953	86
716.085	102
722.21	132
728.33	142
734.443	140
740.549	186
746.65	192
752.743	208
758.831	230
764.912	232
770.986	208
777.055	204
783.117	252
789.173	308
795.222	358
801.265	282
807.302	202
813.333	170
819.357	124
825.376	102
831.387	108
837.392	144
843.392	162
849.386	138
855.372	114
861.353	120
867.328	116
873.296	126
879.258	114
885.214	112
891.164	112
897.108	120
903.046	144
908.977	140
914.903	114
920.822	94
926.735	98
932.643	92
938.543	104
944.439	98
950.328	96
956.21	106
962.088	126
967.958	134
973.824	130
979.682	184
985.534	274
991.382	770
997.222	1218
1003.06	2930
1008.89	444
1014.71	180
1020.53	212
1026.34	492
1032.14	902
1037.94	402
1043.73	216
1049.52	170
1055.3	162
1061.08	168
1066.85	172
1072.61	182
1078.37	172
1084.12	168
1089.87	160
1095.61	168
1101.34	146
1107.07	140
1112.8	126
1118.51	118
1124.22	110
1129.93	110
1135.63	112
1141.32	118
1147.01	172
1152.69	374
1158.37	330
1164.04	218
1169.71	212
1175.37	312
1181.02	516
1186.67	416
1192.31	498
1197.95	514
1203.58	432
1209.2	312
1214.82	228
1220.44	220
1226.05	200
1231.65	180
1237.25	162
1242.84	158
1248.42	170
1254	174
1259.58	180
1265.15	162
1270.71	174
1276.27	182
1281.82	184
1287.37	180
1292.91	212
1298.45	196
1303.98	226
1309.5	232
1315.02	236
1320.53	278
1326.04	294
1331.54	286
1337.04	290
1342.53	274
1348.02	258
1353.5	262
1358.98	272
1364.45	280
1369.91	290
1375.37	280
1380.82	280
1386.27	262
1391.71	242
1397.15	254
1402.58	246
1408.01	244
1413.43	228
1418.85	228
1424.26	220
1429.66	222
1435.06	252
1440.46	290
1445.85	334
1451.23	314
1456.61	250
1461.98	208
1467.35	192
1472.71	202
1478.07	180
1483.42	176
1488.77	168
1494.11	202
1499.45	176
1504.78	164
1510.11	156
1515.43	168
1520.74	172
1526.05	176
1531.36	170
1536.66	158
1541.95	154
1547.24	166
1552.52	170
1557.8	164
1563.08	168
1568.35	166
1573.61	192
1578.87	272
1584.12	396
1589.37	240
1594.61	306
1599.85	604
1605.08	568
1610.31	298
1615.53	202
1620.75	176
1625.96	164
1631.17	154
1636.37	158
1641.57	144
1646.76	152
1651.95	154
1657.13	144
1662.31	128
1667.48	142
1672.65	140
1677.81	134
1682.97	130
1688.12	130
1693.27	126
1698.41	122
1702.26	112