File: Jesse_Dataset_v2/Pure Raman/Polystyrene/785nm/ps-ppo-6jan25-1,0000-map3_Y06_X03.txt
204.377	836
211.048	874
217.712	944
224.369	870
231.019	712
237.661	552
244.297	394
250.924	322
257.546	284
264.16	288
270.766	248
277.365	226
283.958	224
290.543	208
297.121	184
303.693	168
310.256	176
316.813	176
323.362	182
329.905	172
336.441	180
342.969	176
349.491	156
356.006	156
362.513	162
369.014	168
375.508	172
381.994	176
388.473	200
394.947	202
401.412	222
407.871	238
414.323	202
420.768	176
427.206	162
433.637	140
440.062	154
446.479	138
452.89	122
459.293	124
465.691	122
472.081	120
478.463	116
484.84	108
491.21	118
497.573	122
503.929	128
510.279	116
516.621	126
522.957	122
529.287	128
535.609	154
541.925	152
548.234	148
554.536	138
560.832	144
567.12	142
573.403	146
579.679	128
585.948	128
592.211	122
598.466	114
604.715	140
610.958	164
617.194	332
623.424	466
629.647	144
635.864	128
642.074	96
648.276	94
654.473	78
660.664	84
666.847	84
673.025	88
679.195	80
685.36	80
691.517	84
697.669	94
703.814	102
709.953	98
716.085	102
722.21	130
728.33	136
734.443	142
740.549	188
746.65	200
752.743	210
758.831	242
764.912	218
770.986	216
777.055	200
783.117	240
789.173	296
795.222	348
801.265	286
807.302	200
813.333	170
819.357	128
825.376	118
831.387	116
837.392	144
843.392	150
849.386	134
855.372	128
861.353	124
867.328	130
873.296	130
879.258	120
885.214	106
891.164	110
897.108	134
903.046	142
908.977	150
914.903	118
920.822	102
926.735	110
932.643	96
938.543	92
944.439	106
950.328	102
956.21	102
962.088	122
967.958	142
973.824	138
979.682	184
985.534	276
991.382	772
997.222	1252
1003.06	2900
1008.89	436
1014.71	190
1020.53	214
1026.34	512
1032.14	882
1037.94	408
1043.73	212
1049.52	164
1055.3	156
1061.08	160
1066.85	170
1072.61	170
1078.37	180
1084.12	174
1089.87	154
1095.61	166
1101.34	172
1107.07	150
1112.8	128
1118.51	122
1124.22	106
1129.93	104
1135.63	116
1141.32	130
1147.01	162
1152.69	362
1158.37	322
1164.04	208
1169.71	212
1175.37	296
1181.02	530
1186.67	438
1192.31	474
1197.95	520
1203.58	470
1209.2	326
1214.82	230
1220.44	212
1226.05	204
1231.65	180
1237.25	176
1242.84	176
1248.42	176
1254	176
1259.58	176
1265.15	174
1270.71	162
1276.27	168
1281.82	172
1287.37	184
1292.91	172
1298.45	206
1303.98	220
1309.5	212
1315.02	230
1320.53	272
1326.04	294
1331.54	280
1337.04	298
1342.53	252
1348.02	258
1353.5	286
1358.98	266
1364.45	274
1369.91	284
1375.37	276
1380.82	242
1386.27	246
1391.71	232
1397.15	234
1402.58	238
1408.01	224
1413.43	224
1418.85	224
1424.26	204
1429.66	224
1435.06	250
1440.46	286
1445.85	334
1451.23	332
1456.61	270
1461.98	202
1467.35	198
1472.71	180
1478.07	188
1483.42	174
1488.77	180
1494.11	174
1499.45	174
1504.78	166
1510.11	168
1515.43	164
1520.74	168
1526.05	142
1531.36	164
1536.66	166
1541.95	146
1547.24	146
1552.52	158
1557.8	148
1563.08	160
1568.35	174
1573.61	192
1578.87	270
1584.12	394
1589.37	236
1594.61	302
1599.85	634
1605.08	566
1610.31	272
1615.53	200
1620.75	164
1625.96	160
1631.17	146
1636.37	154
1641.57	140
1646.76	154
1651.95	150
1657.13	138
1662.31	136
1667.48	132
1672.65	124
1677.81	128
1682.97	122
1688.12	116
1693.27	118
1698.41	116
1702.26	118