File: Jesse_Dataset_v2/Pure Raman/Polystyrene/785nm/ps-ppo-6jan25-1,0000-map3_Y10_X00.txt
204.377	808
211.048	858
217.712	914
224.369	878
231.019	698
237.661	558
244.297	372
250.924	320
257.546	264
264.16	272
270.766	252
277.365	230
283.958	212
290.543	182
297.121	170
303.693	170
310.256	176
316.813	174
323.362	180
329.905	172
336.441	158
342.969	164
349.491	158
356.006	140
362.513	156
369.014	162
375.508	158
381.994	166
388.473	178
394.947	198
401.412	218
407.871	224
414.323	194
420.768	166
427.206	162
433.637	150
440.062	140
446.479	140
452.89	114
459.293	106
465.691	106
472.081	108
478.463	108
484.84	98
491.21	94
497.573	106
503.929	116
510.279	106
516.621	104
522.957	112
529.287	136
535.609	140
541.925	142
548.234	138
554.536	132
560.832	138
567.12	124
573.403	136
579.679	120
585.948	108
592.211	106
598.466	118
604.715	130
610.958	144
617.194	318
623.424	464
629.647	148
635.864	102
642.074	96
648.276	78
654.473	82
660.664	74
666.847	74
673.025	80
679.195	86
685.36	70
691.517	80
697.669	88
703.814	94
709.953	98
716.085	96
722.21	136
728.33	128
734.443	140
740.549	176
746.65	180
752.743	210
758.831	250
764.912	226
770.986	202
777.055	194
783.117	246
789.173	330
795.222	338
801.265	288
807.302	202
813.333	162
819.357	146
825.376	124
831.387	120
837.392	136
843.392	154
849.386	130
855.372	136
861.353	118
867.328	118
873.296	124
879.258	114
885.214	116
891.164	128
897.108	120
903.046	148
908.977	124
914.903	120
920.822	104
926.735	102
932.643	108
938.543	94
944.439	116
950.328	100
956.21	104
962.088	110
967.958	140
973.824	124
979.682	190
985.534	284
991.382	766
997.222	1236
1003.06	2818
1008.89	438
1014.71	186
1020.53	222
1026.34	508
1032.14	888
1037.94	402
1043.73	220
1049.52	168
1055.3	150
1061.08	160
1066.85	168
1072.61	176
1078.37	172
1084.12	174
1089.87	168
1095.61	166
1101.34	168
1107.07	144
1112.8	136
1118.51	110
1124.22	112
1129.93	108
1135.63	114
1141.32	136
1147.01	178
1152.69	366
1158.37	348
1164.04	206
1169.71	212
1175.37	292
1181.02	530
1186.67	436
1192.31	474
1197.95	508
1203.58	446
1209.2	334
1214.82	226
1220.44	202
1226.05	170
1231.65	188
1237.25	176
1242.84	170
1248.42	164
1254	166
1259.58	158
1265.15	162
1270.71	162
1276.27	170
1281.82	168
1287.37	180
1292.91	194
1298.45	210
1303.98	212
1309.5	228
1315.02	248
1320.53	258
1326.04	282
1331.54	316
1337.04	274
1342.53	254
1348.02	254
1353.5	278
1358.98	260
1364.45	266
1369.91	264
1375.37	270
1380.82	274
1386.27	252
1391.71	224
1397.15	240
1402.58	242
1408.01	218
1413.43	228
1418.85	222
1424.26	224
1429.66	224
1435.06	240
1440.46	288
1445.85	334
1451.23	310
1456.61	276
1461.98	190
1467.35	196
1472.71	186
1478.07	170
1483.42	176
1488.77	176
1494.11	192
1499.45	172
1504.78	172
1510.11	162
1515.43	166
1520.74	168
1526.05	158
1531.36	150
1536.66	150
1541.95	154
1547.24	166
1552.52	164
1557.8	146
1563.08	158
1568.35	184
1573.61	182
1578.87	270
1584.12	398
1589.37	270
1594.61	308
1599.85	606
1605.08	528
1610.31	286
1615.53	194
1620.75	170
1625.96	170
1631.17	160
1636.37	150
1641.57	152
1646.76	134
1651.95	148
1657.13	146
1662.31	134
1667.48	130
1672.65	126
1677.81	130
1682.97	122
1688.12	124
1693.27	120
1698.41	118
1702.26	122