File: Jesse_Dataset_v2/Pure Raman/Polystyrene/785nm/ps-ppo-6jan25-1,0000-map3_Y02_X09.txt
204.377	808
211.048	876
217.712	918
224.369	888
231.019	738
237.661	520
244.297	392
250.924	320
257.546	280
264.16	262
270.766	244
277.365	246
283.958	198
290.543	182
297.121	168
303.693	172
310.256	168
316.813	180
323.362	166
329.905	180
336.441	160
342.969	162
349.491	152
356.006	132
362.513	142
369.014	144
375.508	164
381.994	168
388.473	184
394.947	182
401.412	190
407.871	230
414.323	194
420.768	172
427.206	130
433.637	146
440.062	132
446.479	134
452.89	118
459.293	104
465.691	106
472.081	100
478.463	96
484.84	96
491.21	102
497.573	102
503.929	116
510.279	110
516.621	112
522.957	108
529.287	122
535.609	146
541.925	128
548.234	138
554.536	144
560.832	136
567.12	148
573.403	148
579.679	110
585.948	108
592.211	106
598.466	116
604.715	136
610.958	148
617.194	314
623.424	466
629.647	150
635.864	110
642.074	90
648.276	80
654.473	72
660.664	84
666.847	74
673.025	76
679.195	76
685.36	78
691.517	82
697.669	86
703.814	100
709.953	94
716.085	90
722.21	130
728.33	130
734.443	134
740.549	174
746.65	196
752.743	204
758.831	208
764.912	214
770.986	198
777.055	196
783.117	234
789.173	316
795.222	346
801.265	282
807.302	190
813.333	166
819.357	130
825.376	108
831.387	122
837.392	138
843.392	158
849.386	136
855.372	126
861.353	128
867.328	116
873.296	122
879.258	108
885.214	116
891.164	114
897.108	124
903.046	144
908.977	144
914.903	118
920.822	102
926.735	102
932.643	96
938.543	96
944.439	100
950.328	106
956.21	102
962.088	124
967.958	122
973.824	138
979.682	176
985.534	268
991.382	782
997.222	1240
1003.06	2880
1008.89	438
1014.71	194
1020.53	222
1026.34	496
1032.14	904
1037.94	412
1043.73	210
1049.52	160
1055.3	170
1061.08	152
1066.85	178
1072.61	172
1078.37	168
1084.12	160
1089.87	154
1095.61	180
1101.34	174
1107.07	144
1112.8	136
1118.51	122
1124.22	106
1129.93	114
1135.63	110
1141.32	136
1147.01	170
1152.69	368
1158.37	352
1164.04	228
1169.71	218
1175.37	304
1181.02	502
1186.67	446
1192.31	492
1197.95	490
1203.58	442
1209.2	318
1214.82	224
1220.44	202
1226.05	200
1231.65	174
1237.25	166
1242.84	168
1248.42	152
1254	172
1259.58	170
1265.15	184
1270.71	174
1276.27	178
1281.82	176
1287.37	198
1292.91	198
1298.45	216
1303.98	216
1309.5	236
1315.02	246
1320.53	276
1326.04	302
1331.54	300
1337.04	286
1342.53	292
1348.02	256
1353.5	262
1358.98	264
1364.45	274
1369.91	280
1375.37	286
1380.82	258
1386.27	244
1391.71	244
1397.15	236
1402.58	230
1408.01	238
1413.43	232
1418.85	230
1424.26	224
1429.66	228
1435.06	244
1440.46	288
1445.85	308
1451.23	326
1456.61	282
1461.98	222
1467.35	190
1472.71	192
1478.07	190
1483.42	192
1488.77	176
1494.11	178
1499.45	174
1504.78	172
1510.11	164
1515.43	168
1520.74	176
1526.05	168
1531.36	156
1536.66	174
1541.95	178
1547.24	158
1552.52	170
1557.8	174
1563.08	168
1568.35	176
1573.61	202
1578.87	270
1584.12	420
1589.37	250
1594.61	308
1599.85	598
1605.08	546
1610.31	278
1615.53	206
1620.75	186
1625.96	164
1631.17	142
1636.37	148
1641.57	160
1646.76	156
1651.95	148
1657.13	148
1662.31	126
1667.48	140
1672.65	146
1677.81	128
1682.97	126
1688.12	116
1693.27	110
1698.41	116
1702.26	126