File: Jesse_Dataset_v2/Pure Raman/Polystyrene/785nm/ps-ppo-6jan25-1,0000-map3_Y04_X05.txt
204.377	844
211.048	866
217.712	922
224.369	884
231.019	708
237.661	546
244.297	376
250.924	304
257.546	282
264.16	256
270.766	248
277.365	226
283.958	216
290.543	182
297.121	172
303.693	162
310.256	162
316.813	164
323.362	170
329.905	172
336.441	156
342.969	164
349.491	148
356.006	148
362.513	148
369.014	148
375.508	150
381.994	176
388.473	186
394.947	186
401.412	222
407.871	226
414.323	188
420.768	178
427.206	142
433.637	140
440.062	134
446.479	128
452.89	122
459.293	108
465.691	106
472.081	110
478.463	106
484.84	96
491.21	116
497.573	102
503.929	114
510.279	108
516.621	114
522.957	118
529.287	126
535.609	142
541.925	154
548.234	146
554.536	130
560.832	136
567.12	132
573.403	140
579.679	134
585.948	96
592.211	110
598.466	104
604.715	134
610.958	146
617.194	324
623.424	496
629.647	148
635.864	100
642.074	84
648.276	82
654.473	90
660.664	76
666.847	80
673.025	78
679.195	76
685.36	78
691.517	68
697.669	90
703.814	98
709.953	94
716.085	102
722.21	136
728.33	124
734.443	132
740.549	176
746.65	198
752.743	210
758.831	212
764.912	228
770.986	210
777.055	200
783.117	234
789.173	308
795.222	344
801.265	286
807.302	192
813.333	162
819.357	116
825.376	102
831.387	110
837.392	142
843.392	144
849.386	140
855.372	126
861.353	112
867.328	130
873.296	130
879.258	118
885.214	104
891.164	118
897.108	110
903.046	136
908.977	138
914.903	110
920.822	96
926.735	92
932.643	100
938.543	98
944.439	90
950.328	100
956.21	116
962.088	102
967.958	126
973.824	144
979.682	180
985.534	260
991.382	758
997.222	1210
1003.06	2870
1008.89	426
1014.71	184
1020.53	206
1026.34	496
1032.14	870
1037.94	420
1043.73	204
1049.52	152
1055.3	146
1061.08	148
1066.85	154
1072.61	170
1078.37	158
1084.12	172
1089.87	166
1095.61	178
1101.34	170
1107.07	132
1112.8	124
1118.51	124
1124.22	102
1129.93	100
1135.63	112
1141.32	136
1147.01	154
1152.69	342
1158.37	334
1164.04	220
1169.71	200
1175.37	304
1181.02	526
1186.67	438
1192.31	484
1197.95	480
1203.58	452
1209.2	320
1214.82	222
1220.44	188
1226.05	216
1231.65	186
1237.25	156
1242.84	172
1248.42	174
1254	174
1259.58	154
1265.15	174
1270.71	166
1276.27	182
1281.82	172
1287.37	168
1292.91	192
1298.45	192
1303.98	204
1309.5	230
1315.02	222
1320.53	262
1326.04	296
1331.54	312
1337.04	290
1342.53	260
1348.02	260
1353.5	266
1358.98	278
1364.45	276
1369.91	270
1375.37	286
1380.82	264
1386.27	238
1391.71	242
1397.15	234
1402.58	236
1408.01	230
1413.43	198
1418.85	232
1424.26	216
1429.66	210
1435.06	248
1440.46	284
1445.85	330
1451.23	318
1456.61	262
1461.98	216
1467.35	192
1472.71	178
1478.07	188
1483.42	190
1488.77	178
1494.11	208
1499.45	170
1504.78	176
1510.11	168
1515.43	164
1520.74	148
1526.05	158
1531.36	166
1536.66	162
1541.95	162
1547.24	166
1552.52	158
1557.8	164
1563.08	166
1568.35	176
1573.61	206
1578.87	276
1584.12	392
1589.37	238
1594.61	308
1599.85	588
1605.08	562
1610.31	276
1615.53	196
1620.75	180
1625.96	154
1631.17	142
1636.37	150
1641.57	140
1646.76	144
1651.95	146
1657.13	134
1662.31	132
1667.48	128
1672.65	124
1677.81	122
1682.97	122
1688.12	132
1693.27	116
1698.41	118
1702.26	106