File: Jesse_Dataset_v2/Pure Raman/Polystyrene/785nm/ps-ppo-6jan25-1,0000-map3_Y10_X06.txt
204.377	802
211.048	914
217.712	916
224.369	890
231.019	746
237.661	524
244.297	372
250.924	310
257.546	280
264.16	264
270.766	250
277.365	238
283.958	208
290.543	178
297.121	164
303.693	168
310.256	170
316.813	164
323.362	164
329.905	178
336.441	156
342.969	158
349.491	162
356.006	138
362.513	152
369.014	158
375.508	168
381.994	176
388.473	190
394.947	196
401.412	204
407.871	230
414.323	186
420.768	176
427.206	156
433.637	138
440.062	128
446.479	126
452.89	118
459.293	118
465.691	108
472.081	108
478.463	102
484.84	94
491.21	98
497.573	102
503.929	114
510.279	102
516.621	118
522.957	116
529.287	120
535.609	140
541.925	142
548.234	146
554.536	140
560.832	124
567.12	134
573.403	140
579.679	120
585.948	114
592.211	106
598.466	102
604.715	128
610.958	136
617.194	322
623.424	442
629.647	136
635.864	110
642.074	98
648.276	76
654.473	76
660.664	74
666.847	84
673.025	72
679.195	74
685.36	76
691.517	82
697.669	80
703.814	98
709.953	94
716.085	104
722.21	136
728.33	130
734.443	140
740.549	180
746.65	178
752.743	196
758.831	230
764.912	238
770.986	202
777.055	204
783.117	234
789.173	272
795.222	348
801.265	278
807.302	198
813.333	150
819.357	128
825.376	116
831.387	118
837.392	130
843.392	154
849.386	136
855.372	122
861.353	116
867.328	120
873.296	118
879.258	118
885.214	114
891.164	110
897.108	114
903.046	138
908.977	146
914.903	110
920.822	98
926.735	92
932.643	96
938.543	90
944.439	92
950.328	104
956.21	100
962.088	118
967.958	114
973.824	134
979.682	182
985.534	288
991.382	788
997.222	1234
1003.06	2868
1008.89	446
1014.71	204
1020.53	220
1026.34	492
1032.14	872
1037.94	406
1043.73	218
1049.52	162
1055.3	144
1061.08	164
1066.85	172
1072.61	174
1078.37	170
1084.12	170
1089.87	160
1095.61	162
1101.34	164
1107.07	138
1112.8	144
1118.51	120
1124.22	108
1129.93	98
1135.63	112
1141.32	130
1147.01	180
1152.69	362
1158.37	338
1164.04	206
1169.71	216
1175.37	286
1181.02	540
1186.67	448
1192.31	498
1197.95	516
1203.58	438
1209.2	324
1214.82	220
1220.44	198
1226.05	190
1231.65	182
1237.25	174
1242.84	170
1248.42	170
1254	170
1259.58	166
1265.15	176
1270.71	164
1276.27	172
1281.82	174
1287.37	182
1292.91	198
1298.45	224
1303.98	224
1309.5	230
1315.02	248
1320.53	290
1326.04	304
1331.54	296
1337.04	282
1342.53	268
1348.02	284
1353.5	264
1358.98	262
1364.45	290
1369.91	290
1375.37	280
1380.82	274
1386.27	240
1391.71	238
1397.15	238
1402.58	232
1408.01	234
1413.43	238
1418.85	236
1424.26	216
1429.66	232
1435.06	244
1440.46	282
1445.85	320
1451.23	334
1456.61	282
1461.98	226
1467.35	196
1472.71	194
1478.07	184
1483.42	188
1488.77	182
1494.11	200
1499.45	178
1504.78	180
1510.11	178
1515.43	160
1520.74	162
1526.05	174
1531.36	170
1536.66	148
1541.95	170
1547.24	170
1552.52	166
1557.8	168
1563.08	178
1568.35	164
1573.61	198
1578.87	270
1584.12	398
1589.37	252
1594.61	304
1599.85	606
1605.08	548
1610.31	278
1615.53	202
1620.75	170
1625.96	160
1631.17	162
1636.37	148
1641.57	166
1646.76	154
1651.95	144
1657.13	146
1662.31	134
1667.48	138
1672.65	132
1677.81	130
1682.97	124
1688.12	120
1693.27	124
1698.41	124
1702.26	128