File: Jesse_Dataset_v2/Pure Raman/Polystyrene/785nm/ps-ppo-6jan25-1,0000-map3_Y08_X06.txt
204.377	872
211.048	912
217.712	954
224.369	876
231.019	730
237.661	556
244.297	380
250.924	312
257.546	294
264.16	268
270.766	262
277.365	258
283.958	220
290.543	212
297.121	184
303.693	184
310.256	186
316.813	190
323.362	186
329.905	188
336.441	188
342.969	180
349.491	170
356.006	160
362.513	170
369.014	162
375.508	178
381.994	202
388.473	192
394.947	212
401.412	232
407.871	252
414.323	218
420.768	188
427.206	172
433.637	170
440.062	136
446.479	148
452.89	136
459.293	138
465.691	118
472.081	130
478.463	110
484.84	122
491.21	118
497.573	120
503.929	128
510.279	124
516.621	128
522.957	140
529.287	140
535.609	154
541.925	158
548.234	154
554.536	168
560.832	152
567.12	150
573.403	140
579.679	130
585.948	114
592.211	126
598.466	126
604.715	142
610.958	156
617.194	334
623.424	470
629.647	164
635.864	122
642.074	102
648.276	98
654.473	88
660.664	84
666.847	88
673.025	90
679.195	88
685.36	92
691.517	98
697.669	106
703.814	114
709.953	108
716.085	100
722.21	144
728.33	146
734.443	152
740.549	192
746.65	186
752.743	234
758.831	244
764.912	232
770.986	222
777.055	210
783.117	252
789.173	310
795.222	352
801.265	292
807.302	220
813.333	172
819.357	130
825.376	126
831.387	128
837.392	144
843.392	160
849.386	150
855.372	132
861.353	128
867.328	136
873.296	126
879.258	130
885.214	126
891.164	122
897.108	116
903.046	130
908.977	136
914.903	118
920.822	104
926.735	100
932.643	94
938.543	96
944.439	106
950.328	110
956.21	108
962.088	126
967.958	132
973.824	140
979.682	182
985.534	278
991.382	780
997.222	1280
1003.06	2850
1008.89	440
1014.71	192
1020.53	246
1026.34	498
1032.14	900
1037.94	404
1043.73	204
1049.52	156
1055.3	154
1061.08	162
1066.85	180
1072.61	182
1078.37	178
1084.12	176
1089.87	178
1095.61	168
1101.34	188
1107.07	138
1112.8	134
1118.51	120
1124.22	112
1129.93	112
1135.63	110
1141.32	140
1147.01	174
1152.69	374
1158.37	336
1164.04	226
1169.71	220
1175.37	304
1181.02	520
1186.67	438
1192.31	504
1197.95	506
1203.58	456
1209.2	336
1214.82	222
1220.44	214
1226.05	196
1231.65	172
1237.25	180
1242.84	172
1248.42	160
1254	178
1259.58	166
1265.15	170
1270.71	168
1276.27	172
1281.82	196
1287.37	184
1292.91	206
1298.45	208
1303.98	222
1309.5	238
1315.02	256
1320.53	252
1326.04	276
1331.54	300
1337.04	288
1342.53	266
1348.02	268
1353.5	282
1358.98	276
1364.45	278
1369.91	286
1375.37	288
1380.82	288
1386.27	274
1391.71	242
1397.15	242
1402.58	250
1408.01	234
1413.43	240
1418.85	220
1424.26	228
1429.66	230
1435.06	248
1440.46	292
1445.85	328
1451.23	332
1456.61	264
1461.98	220
1467.35	206
1472.71	198
1478.07	194
1483.42	174
1488.77	186
1494.11	204
1499.45	178
1504.78	182
1510.11	176
1515.43	168
1520.74	174
1526.05	174
1531.36	166
1536.66	158
1541.95	162
1547.24	168
1552.52	168
1557.8	166
1563.08	174
1568.35	184
1573.61	198
1578.87	276
1584.12	404
1589.37	266
1594.61	324
1599.85	602
1605.08	558
1610.31	264
1615.53	204
1620.75	168
1625.96	158
1631.17	154
1636.37	160
1641.57	146
1646.76	164
1651.95	148
1657.13	140
1662.31	138
1667.48	136
1672.65	140
1677.81	136
1682.97	136
1688.12	130
1693.27	136
1698.41	120
1702.26	132