File: Jesse_Dataset_v2/Pure Raman/Polystyrene/785nm/ps-ppo-6jan25-1,0000-map3_Y00_X02.txt
204.377	800
211.048	880
217.712	934
224.369	862
231.019	710
237.661	546
244.297	376
250.924	310
257.546	256
264.16	278
270.766	252
277.365	222
283.958	206
290.543	188
297.121	164
303.693	162
310.256	172
316.813	174
323.362	164
329.905	170
336.441	164
342.969	152
349.491	142
356.006	150
362.513	140
369.014	158
375.508	164
381.994	166
388.473	166
394.947	184
401.412	198
407.871	224
414.323	196
420.768	160
427.206	152
433.637	136
440.062	132
446.479	112
452.89	114
459.293	96
465.691	100
472.081	100
478.463	104
484.84	96
491.21	98
497.573	96
503.929	108
510.279	98
516.621	96
522.957	116
529.287	124
535.609	140
541.925	140
548.234	146
554.536	132
560.832	130
567.12	128
573.403	116
579.679	108
585.948	106
592.211	104
598.466	108
604.715	136
610.958	142
617.194	310
623.424	454
629.647	136
635.864	110
642.074	82
648.276	78
654.473	72
660.664	76
666.847	68
673.025	76
679.195	78
685.36	64
691.517	78
697.669	86
703.814	92
709.953	96
716.085	96
722.21	122
728.33	126
734.443	136
740.549	184
746.65	178
752.743	198
758.831	232
764.912	222
770.986	208
777.055	192
783.117	238
789.173	320
795.222	336
801.265	284
807.302	186
813.333	158
819.357	112
825.376	114
831.387	112
837.392	146
843.392	146
849.386	122
855.372	122
861.353	126
867.328	124
873.296	124
879.258	118
885.214	118
891.164	112
897.108	108
903.046	150
908.977	134
914.903	114
920.822	104
926.735	100
932.643	98
938.543	98
944.439	94
950.328	106
956.21	106
962.088	122
967.958	138
973.824	134
979.682	188
985.534	268
991.382	748
997.222	1202
1003.06	2896
1008.89	426
1014.71	186
1020.53	210
1026.34	480
1032.14	874
1037.94	422
1043.73	202
1049.52	160
1055.3	162
1061.08	160
1066.85	182
1072.61	180
1078.37	164
1084.12	170
1089.87	174
1095.61	172
1101.34	164
1107.07	144
1112.8	126
1118.51	110
1124.22	108
1129.93	116
1135.63	108
1141.32	124
1147.01	164
1152.69	358
1158.37	338
1164.04	216
1169.71	216
1175.37	304
1181.02	534
1186.67	438
1192.31	476
1197.95	474
1203.58	430
1209.2	324
1214.82	222
1220.44	196
1226.05	204
1231.65	168
1237.25	150
1242.84	164
1248.42	176
1254	164
1259.58	158
1265.15	176
1270.71	160
1276.27	172
1281.82	166
1287.37	172
1292.91	190
1298.45	216
1303.98	206
1309.5	216
1315.02	244
1320.53	256
1326.04	270
1331.54	286
1337.04	276
1342.53	250
1348.02	256
1353.5	256
1358.98	256
1364.45	270
1369.91	270
1375.37	264
1380.82	260
1386.27	252
1391.71	238
1397.15	224
1402.58	222
1408.01	202
1413.43	218
1418.85	200
1424.26	216
1429.66	220
1435.06	242
1440.46	266
1445.85	306
1451.23	324
1456.61	268
1461.98	204
1467.35	192
1472.71	180
1478.07	190
1483.42	180
1488.77	184
1494.11	188
1499.45	158
1504.78	160
1510.11	158
1515.43	162
1520.74	162
1526.05	154
1531.36	164
1536.66	160
1541.95	162
1547.24	160
1552.52	158
1557.8	164
1563.08	156
1568.35	164
1573.61	198
1578.87	270
1584.12	400
1589.37	254
1594.61	300
1599.85	624
1605.08	542
1610.31	276
1615.53	204
1620.75	168
1625.96	158
1631.17	156
1636.37	136
1641.57	148
1646.76	152
1651.95	134
1657.13	128
1662.31	130
1667.48	130
1672.65	128
1677.81	126
1682.97	130
1688.12	112
1693.27	116
1698.41	112
1702.26	116