File: Jesse_Dataset_v2/Pure Raman/Polystyrene/785nm/ps-ppo-6jan25-1,0000-map3_Y04_X09.txt
204.377	858
211.048	892
217.712	918
224.369	906
231.019	714
237.661	566
244.297	386
250.924	302
257.546	278
264.16	274
270.766	240
277.365	244
283.958	218
290.543	198
297.121	168
303.693	172
310.256	164
316.813	172
323.362	172
329.905	166
336.441	176
342.969	176
349.491	162
356.006	152
362.513	146
369.014	158
375.508	164
381.994	166
388.473	192
394.947	198
401.412	226
407.871	230
414.323	204
420.768	184
427.206	164
433.637	136
440.062	146
446.479	134
452.89	124
459.293	110
465.691	110
472.081	114
478.463	102
484.84	102
491.21	106
497.573	112
503.929	106
510.279	102
516.621	100
522.957	118
529.287	130
535.609	136
541.925	154
548.234	138
554.536	142
560.832	146
567.12	132
573.403	144
579.679	130
585.948	114
592.211	102
598.466	108
604.715	134
610.958	148
617.194	332
623.424	476
629.647	148
635.864	118
642.074	96
648.276	86
654.473	80
660.664	86
666.847	84
673.025	72
679.195	82
685.36	78
691.517	86
697.669	88
703.814	108
709.953	106
716.085	102
722.21	140
728.33	132
734.443	130
740.549	178
746.65	188
752.743	200
758.831	232
764.912	230
770.986	206
777.055	206
783.117	234
789.173	300
795.222	354
801.265	288
807.302	214
813.333	166
819.357	136
825.376	118
831.387	118
837.392	144
843.392	168
849.386	142
855.372	128
861.353	122
867.328	130
873.296	130
879.258	118
885.214	110
891.164	122
897.108	122
903.046	144
908.977	154
914.903	118
920.822	104
926.735	100
932.643	104
938.543	106
944.439	110
950.328	116
956.21	112
962.088	128
967.958	128
973.824	142
979.682	188
985.534	284
991.382	768
997.222	1242
1003.06	2876
1008.89	448
1014.71	190
1020.53	228
1026.34	504
1032.14	914
1037.94	410
1043.73	220
1049.52	170
1055.3	160
1061.08	160
1066.85	186
1072.61	176
1078.37	172
1084.12	154
1089.87	172
1095.61	178
1101.34	164
1107.07	136
1112.8	134
1118.51	126
1124.22	118
1129.93	118
1135.63	122
1141.32	144
1147.01	182
1152.69	366
1158.37	360
1164.04	224
1169.71	224
1175.37	312
1181.02	508
1186.67	446
1192.31	490
1197.95	504
1203.58	462
1209.2	328
1214.82	252
1220.44	210
1226.05	216
1231.65	174
1237.25	176
1242.84	174
1248.42	182
1254	166
1259.58	188
1265.15	176
1270.71	186
1276.27	182
1281.82	176
1287.37	180
1292.91	202
1298.45	200
1303.98	226
1309.5	230
1315.02	254
1320.53	256
1326.04	300
1331.54	310
1337.04	272
1342.53	270
1348.02	290
1353.5	256
1358.98	274
1364.45	286
1369.91	292
1375.37	280
1380.82	268
1386.27	268
1391.71	256
1397.15	250
1402.58	236
1408.01	240
1413.43	238
1418.85	242
1424.26	234
1429.66	228
1435.06	262
1440.46	298
1445.85	336
1451.23	334
1456.61	270
1461.98	208
1467.35	190
1472.71	200
1478.07	194
1483.42	192
1488.77	182
1494.11	186
1499.45	174
1504.78	170
1510.11	178
1515.43	172
1520.74	166
1526.05	164
1531.36	168
1536.66	160
1541.95	176
1547.24	172
1552.52	170
1557.8	168
1563.08	180
1568.35	172
1573.61	202
1578.87	290
1584.12	420
1589.37	264
1594.61	328
1599.85	638
1605.08	558
1610.31	276
1615.53	212
1620.75	172
1625.96	174
1631.17	152
1636.37	164
1641.57	144
1646.76	150
1651.95	152
1657.13	132
1662.31	136
1667.48	122
1672.65	138
1677.81	124
1682.97	126
1688.12	120
1693.27	128
1698.41	134
1702.26	136