File: Jesse_Dataset_v2/Pure Raman/Polystyrene/785nm/ps-ppo-6jan25-1,0000-map3_Y02_X04.txt
204.377	834
211.048	876
217.712	928
224.369	884
231.019	710
237.661	516
244.297	384
250.924	302
257.546	278
264.16	268
270.766	242
277.365	226
283.958	210
290.543	168
297.121	156
303.693	172
310.256	164
316.813	170
323.362	162
329.905	174
336.441	168
342.969	158
349.491	136
356.006	140
362.513	146
369.014	130
375.508	152
381.994	170
388.473	174
394.947	176
401.412	228
407.871	232
414.323	192
420.768	156
427.206	152
433.637	138
440.062	136
446.479	116
452.89	112
459.293	102
465.691	104
472.081	102
478.463	94
484.84	100
491.21	94
497.573	112
503.929	108
510.279	102
516.621	104
522.957	110
529.287	124
535.609	126
541.925	154
548.234	142
554.536	128
560.832	136
567.12	134
573.403	132
579.679	118
585.948	104
592.211	108
598.466	106
604.715	116
610.958	146
617.194	318
623.424	450
629.647	140
635.864	108
642.074	86
648.276	76
654.473	72
660.664	74
666.847	74
673.025	72
679.195	74
685.36	80
691.517	72
697.669	86
703.814	98
709.953	94
716.085	92
722.21	130
728.33	130
734.443	128
740.549	172
746.65	182
752.743	200
758.831	234
764.912	210
770.986	202
777.055	192
783.117	250
789.173	298
795.222	328
801.265	258
807.302	190
813.333	146
819.357	124
825.376	110
831.387	114
837.392	142
843.392	164
849.386	138
855.372	126
861.353	120
867.328	126
873.296	118
879.258	112
885.214	108
891.164	116
897.108	116
903.046	150
908.977	136
914.903	116
920.822	102
926.735	90
932.643	96
938.543	102
944.439	100
950.328	106
956.21	110
962.088	112
967.958	128
973.824	136
979.682	178
985.534	266
991.382	754
997.222	1202
1003.06	2878
1008.89	452
1014.71	196
1020.53	218
1026.34	470
1032.14	896
1037.94	408
1043.73	210
1049.52	170
1055.3	152
1061.08	158
1066.85	168
1072.61	160
1078.37	170
1084.12	154
1089.87	146
1095.61	176
1101.34	154
1107.07	140
1112.8	128
1118.51	116
1124.22	104
1129.93	98
1135.63	110
1141.32	134
1147.01	174
1152.69	346
1158.37	354
1164.04	226
1169.71	228
1175.37	290
1181.02	530
1186.67	406
1192.31	452
1197.95	488
1203.58	416
1209.2	316
1214.82	242
1220.44	210
1226.05	202
1231.65	176
1237.25	168
1242.84	162
1248.42	170
1254	158
1259.58	164
1265.15	170
1270.71	174
1276.27	172
1281.82	166
1287.37	184
1292.91	200
1298.45	204
1303.98	222
1309.5	208
1315.02	236
1320.53	262
1326.04	282
1331.54	306
1337.04	286
1342.53	262
1348.02	254
1353.5	270
1358.98	266
1364.45	272
1369.91	266
1375.37	272
1380.82	250
1386.27	236
1391.71	212
1397.15	226
1402.58	246
1408.01	220
1413.43	228
1418.85	230
1424.26	198
1429.66	216
1435.06	226
1440.46	278
1445.85	316
1451.23	336
1456.61	248
1461.98	212
1467.35	188
1472.71	182
1478.07	164
1483.42	178
1488.77	176
1494.11	174
1499.45	174
1504.78	168
1510.11	170
1515.43	164
1520.74	162
1526.05	166
1531.36	158
1536.66	166
1541.95	160
1547.24	162
1552.52	158
1557.8	148
1563.08	174
1568.35	168
1573.61	184
1578.87	244
1584.12	410
1589.37	258
1594.61	306
1599.85	612
1605.08	558
1610.31	272
1615.53	186
1620.75	166
1625.96	166
1631.17	146
1636.37	142
1641.57	136
1646.76	142
1651.95	138
1657.13	130
1662.31	136
1667.48	126
1672.65	126
1677.81	124
1682.97	126
1688.12	108
1693.27	124
1698.41	124
1702.26	114