File: Jesse_Dataset_v2/Pure Raman/Polystyrene/785nm/ps-ppo-6jan25-1,0000-map3_Y05_X04.txt
204.377	856
211.048	928
217.712	910
224.369	874
231.019	726
237.661	568
244.297	398
250.924	310
257.546	270
264.16	278
270.766	246
277.365	240
283.958	218
290.543	188
297.121	188
303.693	176
310.256	174
316.813	184
323.362	184
329.905	188
336.441	192
342.969	174
349.491	162
356.006	156
362.513	152
369.014	168
375.508	162
381.994	186
388.473	194
394.947	204
401.412	238
407.871	240
414.323	212
420.768	190
427.206	168
433.637	158
440.062	142
446.479	134
452.89	140
459.293	128
465.691	118
472.081	118
478.463	116
484.84	118
491.21	110
497.573	106
503.929	128
510.279	118
516.621	118
522.957	130
529.287	158
535.609	156
541.925	164
548.234	160
554.536	156
560.832	138
567.12	150
573.403	144
579.679	146
585.948	118
592.211	114
598.466	136
604.715	140
610.958	156
617.194	344
623.424	484
629.647	160
635.864	110
642.074	96
648.276	98
654.473	88
660.664	74
666.847	94
673.025	88
679.195	94
685.36	86
691.517	94
697.669	102
703.814	102
709.953	114
716.085	108
722.21	138
728.33	138
734.443	140
740.549	182
746.65	196
752.743	220
758.831	238
764.912	220
770.986	204
777.055	214
783.117	242
789.173	312
795.222	356
801.265	274
807.302	198
813.333	166
819.357	124
825.376	118
831.387	130
837.392	146
843.392	152
849.386	156
855.372	136
861.353	138
867.328	134
873.296	130
879.258	136
885.214	118
891.164	116
897.108	116
903.046	134
908.977	152
914.903	126
920.822	110
926.735	106
932.643	102
938.543	118
944.439	110
950.328	110
956.21	112
962.088	116
967.958	132
973.824	144
979.682	188
985.534	264
991.382	786
997.222	1200
1003.06	2932
1008.89	438
1014.71	194
1020.53	224
1026.34	492
1032.14	890
1037.94	388
1043.73	208
1049.52	166
1055.3	156
1061.08	176
1066.85	180
1072.61	168
1078.37	188
1084.12	172
1089.87	176
1095.61	176
1101.34	174
1107.07	158
1112.8	136
1118.51	122
1124.22	106
1129.93	108
1135.63	114
1141.32	140
1147.01	172
1152.69	378
1158.37	330
1164.04	210
1169.71	214
1175.37	302
1181.02	526
1186.67	442
1192.31	474
1197.95	490
1203.58	454
1209.2	318
1214.82	236
1220.44	206
1226.05	186
1231.65	174
1237.25	180
1242.84	176
1248.42	166
1254	174
1259.58	160
1265.15	182
1270.71	170
1276.27	186
1281.82	182
1287.37	182
1292.91	202
1298.45	196
1303.98	212
1309.5	230
1315.02	242
1320.53	274
1326.04	294
1331.54	300
1337.04	272
1342.53	258
1348.02	262
1353.5	280
1358.98	268
1364.45	278
1369.91	278
1375.37	272
1380.82	266
1386.27	262
1391.71	254
1397.15	228
1402.58	226
1408.01	226
1413.43	222
1418.85	208
1424.26	212
1429.66	222
1435.06	246
1440.46	292
1445.85	316
1451.23	318
1456.61	268
1461.98	208
1467.35	204
1472.71	184
1478.07	184
1483.42	172
1488.77	174
1494.11	190
1499.45	168
1504.78	176
1510.11	164
1515.43	162
1520.74	170
1526.05	164
1531.36	160
1536.66	156
1541.95	166
1547.24	172
1552.52	162
1557.8	162
1563.08	176
1568.35	168
1573.61	202
1578.87	260
1584.12	412
1589.37	252
1594.61	302
1599.85	602
1605.08	566
1610.31	282
1615.53	204
1620.75	178
1625.96	160
1631.17	154
1636.37	148
1641.57	140
1646.76	148
1651.95	146
1657.13	140
1662.31	136
1667.48	128
1672.65	128
1677.81	130
1682.97	136
1688.12	130
1693.27	126
1698.41	114
1702.26	130