File: Jesse_Dataset_v2/Pure Raman/Polystyrene/785nm/ps-ppo-6jan25-1,0000-map3_Y02_X05.txt
204.377	848
211.048	838
217.712	892
224.369	896
231.019	720
237.661	532
244.297	380
250.924	296
257.546	270
264.16	262
270.766	248
277.365	242
283.958	216
290.543	184
297.121	174
303.693	178
310.256	162
316.813	174
323.362	168
329.905	164
336.441	162
342.969	150
349.491	142
356.006	144
362.513	142
369.014	152
375.508	158
381.994	152
388.473	184
394.947	196
401.412	222
407.871	236
414.323	202
420.768	164
427.206	150
433.637	124
440.062	140
446.479	124
452.89	112
459.293	110
465.691	114
472.081	112
478.463	100
484.84	94
491.21	98
497.573	106
503.929	106
510.279	102
516.621	104
522.957	108
529.287	116
535.609	146
541.925	146
548.234	138
554.536	122
560.832	134
567.12	136
573.403	144
579.679	118
585.948	108
592.211	114
598.466	112
604.715	138
610.958	142
617.194	304
623.424	480
629.647	148
635.864	96
642.074	82
648.276	70
654.473	76
660.664	80
666.847	76
673.025	76
679.195	74
685.36	72
691.517	76
697.669	86
703.814	96
709.953	88
716.085	96
722.21	130
728.33	124
734.443	122
740.549	174
746.65	188
752.743	202
758.831	228
764.912	230
770.986	200
777.055	180
783.117	238
789.173	304
795.222	354
801.265	274
807.302	202
813.333	168
819.357	122
825.376	106
831.387	122
837.392	134
843.392	154
849.386	142
855.372	118
861.353	122
867.328	126
873.296	108
879.258	120
885.214	110
891.164	112
897.108	112
903.046	138
908.977	148
914.903	112
920.822	102
926.735	86
932.643	86
938.543	98
944.439	98
950.328	96
956.21	108
962.088	118
967.958	120
973.824	130
979.682	162
985.534	278
991.382	760
997.222	1236
1003.06	2888
1008.89	470
1014.71	190
1020.53	234
1026.34	486
1032.14	872
1037.94	400
1043.73	212
1049.52	172
1055.3	158
1061.08	154
1066.85	168
1072.61	172
1078.37	174
1084.12	166
1089.87	154
1095.61	180
1101.34	174
1107.07	140
1112.8	128
1118.51	116
1124.22	108
1129.93	100
1135.63	110
1141.32	128
1147.01	184
1152.69	346
1158.37	334
1164.04	220
1169.71	210
1175.37	294
1181.02	526
1186.67	416
1192.31	490
1197.95	510
1203.58	448
1209.2	334
1214.82	228
1220.44	206
1226.05	194
1231.65	166
1237.25	166
1242.84	166
1248.42	164
1254	168
1259.58	166
1265.15	162
1270.71	164
1276.27	168
1281.82	182
1287.37	186
1292.91	194
1298.45	198
1303.98	210
1309.5	220
1315.02	230
1320.53	272
1326.04	284
1331.54	292
1337.04	282
1342.53	268
1348.02	244
1353.5	266
1358.98	270
1364.45	280
1369.91	260
1375.37	276
1380.82	264
1386.27	254
1391.71	228
1397.15	212
1402.58	224
1408.01	220
1413.43	222
1418.85	212
1424.26	206
1429.66	214
1435.06	240
1440.46	300
1445.85	314
1451.23	316
1456.61	266
1461.98	212
1467.35	194
1472.71	172
1478.07	174
1483.42	176
1488.77	178
1494.11	194
1499.45	176
1504.78	154
1510.11	158
1515.43	168
1520.74	164
1526.05	148
1531.36	162
1536.66	158
1541.95	152
1547.24	156
1552.52	158
1557.8	160
1563.08	168
1568.35	192
1573.61	190
1578.87	252
1584.12	398
1589.37	244
1594.61	310
1599.85	596
1605.08	562
1610.31	272
1615.53	188
1620.75	168
1625.96	158
1631.17	152
1636.37	150
1641.57	156
1646.76	150
1651.95	142
1657.13	144
1662.31	126
1667.48	126
1672.65	136
1677.81	120
1682.97	130
1688.12	122
1693.27	122
1698.41	122
1702.26	112