File: Jesse_Dataset_v2/Pure Raman/Polypropylene oxide/633nm/ps-ppo-7jan25-0,0000-map2_Y07_X03.txt
182.393	698
192.79	580
203.174	478
213.542	442
223.897	586
234.238	1300
244.566	864
254.878	456
265.178	308
275.463	288
285.734	368
295.992	640
306.236	434
316.467	360
326.684	370
336.887	372
347.075	352
357.251	374
367.413	336
377.562	308
387.697	230
397.819	230
407.926	252
418.02	334
428.101	218
438.169	190
448.223	166
458.264	168
468.291	224
478.306	380
488.307	438
498.294	228
508.269	256
518.23	294
528.177	358
538.113	766
548.034	446
557.942	500
567.838	2656
577.72	1568
587.589	596
597.446	434
607.289	218
617.119	214
626.936	250
636.741	320
646.533	242
656.313	192
666.078	168
675.831	160
685.571	166
695.299	164
705.014	188
714.716	234
724.406	196
734.082	198
743.746	260
753.398	298
763.037	198
772.664	198
782.278	210
791.879	190
801.467	186
811.044	194
820.608	232
830.16	776
839.699	384
849.226	270
858.741	238
868.243	200
877.731	174
887.209	174
896.674	160
906.128	176
915.569	190
924.997	178
934.414	198
943.818	230
953.211	498
962.59	906
971.958	442
981.314	230
990.659	236
999.99	196
1009.31	182
1018.62	212
1027.91	264
1037.2	280
1046.47	224
1055.73	212
1064.98	174
1074.22	192
1083.44	200
1092.65	200
1101.86	252
1111.05	812
1120.22	396
1129.39	254
1138.54	248
1147.69	234
1156.82	248
1165.94	276
1175.05	270
1184.14	558
1193.23	458
1202.3	456
1211.36	304
1220.41	222
1229.45	346
1238.48	244
1247.5	204
1256.5	230
1265.49	222
1274.48	272
1283.45	344
1292.41	504
1301.36	1578
1310.29	1300
1319.22	536
1328.13	462
1337.04	332
1345.93	368
1354.81	368
1363.68	308
1372.54	556
1381.38	1030
1390.22	410
1399.05	280
1407.86	268
1416.66	316
1425.46	418
1434.24	466
1443.01	508
1451.77	406
1460.52	378
1469.25	342
1477.98	340
1486.7	298
1495.4	282
1504.1	280
1512.78	278
1521.45	260
1530.11	272
1538.76	290
1547.41	298
1556.03	282
1564.65	312
1573.26	320
1581.86	448
1590.45	742
1599.02	1338
1607.59	1276
1616.14	724
1624.69	370
1633.22	296
1641.75	260
1650.26	236
1658.76	242
1667.26	210
1675.74	210
1684.21	236
1692.67	250
1701.12	248
1709.56	230
1717.99	224
1726.41	206
1734.82	198
1743.22	218
1751.61	210
1759.99	206
1768.36	212
1776.71	206
1785.06	192
1793.4	208
1801.73	186
1810.04	208
1818.35	206
1826.65	214
1834.94	208
1843.21	194
1851.48	202
1859.74	214
1867.98	218
1876.22	216
1884.45	212
1892.67	204
1900.87	216
1909.07	220
1917.26	210
1925.43	214
1933.6	210
1941.76	194
1949.91	200
1958.05	208
1966.17	204
1974.29	200
1982.4	188
1990.5	208
1998.59	210
2006.67	204
2014.74	208
2022.8	212
2030.85	192
2038.89	208
2046.92	204
2054.94	214
2062.95	218
2070.96	216
2078.95	206
2086.93	194
2094.91	206
2102.87	200
2110.83	206
2118.77	206
2126.71	196
2134.63	218
2142.55	190
2150.46	220
2158.35	198
2166.24	224
2174.12	208
2181.99	198
2189.85	210
2197.7	188
2205.55	204
2213.38	194
2221.2	204
2229.02	214
2236.82	190
2244.62	208
2252.4	216
2260.18	208
2267.95	210
2275.71	188
2283.46	202
2291.2	194
2298.93	198
2306.65	220
2314.37	214
2322.07	206
2329.77	220
2337.45	222
2345.13	200
2352.8	208
2360.46	208
2368.11	200
2375.75	220
2383.38	206
2391.01	222
2398.62	216
2406.23	212
2413.82	224
2421.41	190
2428.99	202
2436.56	210
2444.12	212
2449.79	212