File: Jesse_Dataset_v2/Pure Raman/Polypropylene oxide/633nm/ps-ppo-7jan25-0,0000-map2_Y02_X04.txt
182.393	730
192.79	604
203.174	516
213.542	468
223.897	628
234.238	1264
244.566	876
254.878	472
265.178	314
275.463	288
285.734	372
295.992	628
306.236	468
316.467	380
326.684	368
336.887	406
347.075	344
357.251	368
367.413	326
377.562	320
387.697	258
397.819	230
407.926	280
418.02	344
428.101	230
438.169	198
448.223	186
458.264	174
468.291	250
478.306	402
488.307	448
498.294	244
508.269	268
518.23	310
528.177	418
538.113	760
548.034	442
557.942	524
567.838	2690
577.72	1530
587.589	588
597.446	448
607.289	244
617.119	210
626.936	274
636.741	316
646.533	252
656.313	198
666.078	174
675.831	160
685.571	170
695.299	176
705.014	172
714.716	246
724.406	190
734.082	204
743.746	310
753.398	288
763.037	216
772.664	192
782.278	222
791.879	214
801.467	182
811.044	206
820.608	242
830.16	848
839.699	414
849.226	244
858.741	232
868.243	186
877.731	198
887.209	186
896.674	178
906.128	184
915.569	190
924.997	188
934.414	204
943.818	268
953.211	534
962.59	918
971.958	462
981.314	238
990.659	222
999.99	200
1009.31	204
1018.62	242
1027.91	260
1037.2	282
1046.47	240
1055.73	192
1064.98	220
1074.22	208
1083.44	210
1092.65	220
1101.86	234
1111.05	854
1120.22	386
1129.39	242
1138.54	254
1147.69	242
1156.82	248
1165.94	268
1175.05	278
1184.14	584
1193.23	466
1202.3	456
1211.36	292
1220.41	238
1229.45	362
1238.48	278
1247.5	220
1256.5	242
1265.49	250
1274.48	258
1283.45	358
1292.41	480
1301.36	1574
1310.29	1370
1319.22	566
1328.13	476
1337.04	350
1345.93	378
1354.81	364
1363.68	312
1372.54	526
1381.38	1054
1390.22	382
1399.05	276
1407.86	284
1416.66	330
1425.46	418
1434.24	458
1443.01	514
1451.77	404
1460.52	394
1469.25	368
1477.98	356
1486.7	348
1495.4	272
1504.1	276
1512.78	274
1521.45	268
1530.11	290
1538.76	272
1547.41	300
1556.03	294
1564.65	304
1573.26	336
1581.86	460
1590.45	776
1599.02	1420
1607.59	1276
1616.14	776
1624.69	396
1633.22	304
1641.75	270
1650.26	242
1658.76	238
1667.26	236
1675.74	224
1684.21	234
1692.67	260
1701.12	242
1709.56	240
1717.99	238
1726.41	222
1734.82	210
1743.22	230
1751.61	216
1759.99	208
1768.36	216
1776.71	204
1785.06	222
1793.4	224
1801.73	232
1810.04	230
1818.35	224
1826.65	208
1834.94	218
1843.21	226
1851.48	206
1859.74	198
1867.98	224
1876.22	218
1884.45	198
1892.67	222
1900.87	216
1909.07	208
1917.26	220
1925.43	220
1933.6	222
1941.76	212
1949.91	208
1958.05	224
1966.17	210
1974.29	212
1982.4	224
1990.5	210
1998.59	206
2006.67	218
2014.74	202
2022.8	214
2030.85	216
2038.89	238
2046.92	218
2054.94	220
2062.95	212
2070.96	218
2078.95	204
2086.93	226
2094.91	210
2102.87	226
2110.83	216
2118.77	210
2126.71	198
2134.63	236
2142.55	216
2150.46	210
2158.35	216
2166.24	204
2174.12	222
2181.99	208
2189.85	222
2197.7	214
2205.55	212
2213.38	212
2221.2	218
2229.02	212
2236.82	218
2244.62	214
2252.4	214
2260.18	216
2267.95	210
2275.71	210
2283.46	212
2291.2	226
2298.93	216
2306.65	232
2314.37	236
2322.07	234
2329.77	222
2337.45	232
2345.13	216
2352.8	226
2360.46	230
2368.11	216
2375.75	226
2383.38	232
2391.01	206
2398.62	210
2406.23	228
2413.82	212
2421.41	218
2428.99	212
2436.56	216
2444.12	210
2449.79	220