File: Jesse_Dataset_v2/Pure Raman/Polypropylene oxide/633nm/ps-ppo-7jan25-0,0000-map2_Y08_X02.txt
182.393	696
192.79	576
203.174	508
213.542	428
223.897	582
234.238	1240
244.566	864
254.878	460
265.178	306
275.463	272
285.734	374
295.992	618
306.236	450
316.467	352
326.684	376
336.887	384
347.075	348
357.251	350
367.413	314
377.562	294
387.697	252
397.819	232
407.926	252
418.02	338
428.101	216
438.169	190
448.223	174
458.264	184
468.291	222
478.306	374
488.307	458
498.294	248
508.269	242
518.23	310
528.177	384
538.113	796
548.034	478
557.942	498
567.838	2610
577.72	1510
587.589	612
597.446	436
607.289	226
617.119	220
626.936	260
636.741	312
646.533	252
656.313	196
666.078	170
675.831	166
685.571	160
695.299	154
705.014	164
714.716	226
724.406	194
734.082	220
743.746	272
753.398	280
763.037	196
772.664	192
782.278	222
791.879	186
801.467	190
811.044	198
820.608	234
830.16	788
839.699	410
849.226	268
858.741	234
868.243	212
877.731	190
887.209	178
896.674	190
906.128	166
915.569	174
924.997	184
934.414	200
943.818	250
953.211	524
962.59	898
971.958	462
981.314	244
990.659	238
999.99	196
1009.31	194
1018.62	226
1027.91	246
1037.2	294
1046.47	234
1055.73	204
1064.98	204
1074.22	188
1083.44	192
1092.65	218
1101.86	240
1111.05	832
1120.22	368
1129.39	256
1138.54	250
1147.69	216
1156.82	228
1165.94	288
1175.05	274
1184.14	548
1193.23	432
1202.3	464
1211.36	300
1220.41	236
1229.45	342
1238.48	254
1247.5	216
1256.5	228
1265.49	248
1274.48	262
1283.45	364
1292.41	508
1301.36	1554
1310.29	1284
1319.22	562
1328.13	472
1337.04	344
1345.93	374
1354.81	376
1363.68	312
1372.54	496
1381.38	1022
1390.22	382
1399.05	274
1407.86	296
1416.66	336
1425.46	400
1434.24	450
1443.01	490
1451.77	400
1460.52	376
1469.25	370
1477.98	372
1486.7	314
1495.4	284
1504.1	290
1512.78	262
1521.45	262
1530.11	266
1538.76	258
1547.41	278
1556.03	266
1564.65	292
1573.26	336
1581.86	454
1590.45	788
1599.02	1356
1607.59	1274
1616.14	712
1624.69	376
1633.22	288
1641.75	258
1650.26	234
1658.76	238
1667.26	256
1675.74	228
1684.21	218
1692.67	244
1701.12	240
1709.56	244
1717.99	220
1726.41	226
1734.82	194
1743.22	210
1751.61	202
1759.99	218
1768.36	216
1776.71	198
1785.06	224
1793.4	214
1801.73	206
1810.04	200
1818.35	204
1826.65	208
1834.94	210
1843.21	204
1851.48	212
1859.74	224
1867.98	216
1876.22	218
1884.45	210
1892.67	190
1900.87	194
1909.07	218
1917.26	220
1925.43	196
1933.6	210
1941.76	204
1949.91	206
1958.05	198
1966.17	214
1974.29	202
1982.4	214
1990.5	204
1998.59	214
2006.67	206
2014.74	226
2022.8	216
2030.85	202
2038.89	206
2046.92	206
2054.94	198
2062.95	206
2070.96	198
2078.95	216
2086.93	208
2094.91	202
2102.87	200
2110.83	212
2118.77	216
2126.71	212
2134.63	206
2142.55	216
2150.46	198
2158.35	200
2166.24	210
2174.12	216
2181.99	208
2189.85	210
2197.7	220
2205.55	216
2213.38	194
2221.2	210
2229.02	186
2236.82	214
2244.62	190
2252.4	214
2260.18	200
2267.95	228
2275.71	206
2283.46	220
2291.2	200
2298.93	224
2306.65	196
2314.37	204
2322.07	226
2329.77	202
2337.45	204
2345.13	208
2352.8	210
2360.46	206
2368.11	218
2375.75	202
2383.38	208
2391.01	218
2398.62	224
2406.23	228
2413.82	240
2421.41	198
2428.99	214
2436.56	210
2444.12	204
2449.79	198