File: Jesse_Dataset_v2/Pure Raman/Polypropylene oxide/633nm/ps-ppo-7jan25-0,0000-map2_Y08_X01.txt
182.393	698
192.79	574
203.174	538
213.542	446
223.897	596
234.238	1244
244.566	878
254.878	486
265.178	308
275.463	276
285.734	384
295.992	666
306.236	454
316.467	364
326.684	382
336.887	398
347.075	324
357.251	386
367.413	318
377.562	316
387.697	260
397.819	240
407.926	270
418.02	352
428.101	244
438.169	190
448.223	170
458.264	182
468.291	252
478.306	400
488.307	460
498.294	238
508.269	248
518.23	326
528.177	400
538.113	770
548.034	436
557.942	514
567.838	2608
577.72	1610
587.589	602
597.446	452
607.289	254
617.119	234
626.936	286
636.741	322
646.533	270
656.313	212
666.078	190
675.831	186
685.571	184
695.299	186
705.014	192
714.716	260
724.406	212
734.082	212
743.746	256
753.398	300
763.037	208
772.664	210
782.278	228
791.879	190
801.467	200
811.044	218
820.608	264
830.16	802
839.699	438
849.226	278
858.741	238
868.243	214
877.731	182
887.209	192
896.674	178
906.128	198
915.569	188
924.997	192
934.414	206
943.818	256
953.211	546
962.59	902
971.958	460
981.314	262
990.659	224
999.99	218
1009.31	210
1018.62	242
1027.91	256
1037.2	278
1046.47	252
1055.73	218
1064.98	232
1074.22	226
1083.44	186
1092.65	212
1101.86	254
1111.05	818
1120.22	374
1129.39	268
1138.54	238
1147.69	218
1156.82	260
1165.94	284
1175.05	266
1184.14	578
1193.23	458
1202.3	474
1211.36	294
1220.41	246
1229.45	352
1238.48	244
1247.5	232
1256.5	220
1265.49	274
1274.48	282
1283.45	364
1292.41	518
1301.36	1550
1310.29	1374
1319.22	566
1328.13	482
1337.04	358
1345.93	368
1354.81	368
1363.68	318
1372.54	538
1381.38	1040
1390.22	414
1399.05	292
1407.86	296
1416.66	336
1425.46	410
1434.24	468
1443.01	510
1451.77	394
1460.52	370
1469.25	360
1477.98	364
1486.7	330
1495.4	288
1504.1	274
1512.78	274
1521.45	274
1530.11	282
1538.76	274
1547.41	292
1556.03	310
1564.65	286
1573.26	348
1581.86	482
1590.45	772
1599.02	1402
1607.59	1288
1616.14	758
1624.69	394
1633.22	314
1641.75	282
1650.26	240
1658.76	238
1667.26	242
1675.74	232
1684.21	248
1692.67	280
1701.12	246
1709.56	226
1717.99	240
1726.41	238
1734.82	218
1743.22	210
1751.61	222
1759.99	236
1768.36	220
1776.71	228
1785.06	212
1793.4	238
1801.73	220
1810.04	220
1818.35	238
1826.65	226
1834.94	202
1843.21	218
1851.48	220
1859.74	216
1867.98	218
1876.22	228
1884.45	232
1892.67	216
1900.87	212
1909.07	206
1917.26	218
1925.43	214
1933.6	236
1941.76	198
1949.91	218
1958.05	204
1966.17	216
1974.29	202
1982.4	214
1990.5	210
1998.59	208
2006.67	212
2014.74	220
2022.8	218
2030.85	214
2038.89	220
2046.92	222
2054.94	206
2062.95	236
2070.96	218
2078.95	218
2086.93	224
2094.91	204
2102.87	222
2110.83	214
2118.77	224
2126.71	210
2134.63	230
2142.55	214
2150.46	226
2158.35	216
2166.24	218
2174.12	230
2181.99	222
2189.85	202
2197.7	232
2205.55	214
2213.38	216
2221.2	214
2229.02	210
2236.82	214
2244.62	232
2252.4	216
2260.18	226
2267.95	218
2275.71	218
2283.46	212
2291.2	222
2298.93	206
2306.65	214
2314.37	226
2322.07	246
2329.77	224
2337.45	224
2345.13	234
2352.8	206
2360.46	230
2368.11	214
2375.75	212
2383.38	236
2391.01	230
2398.62	214
2406.23	226
2413.82	222
2421.41	242
2428.99	222
2436.56	204
2444.12	206
2449.79	218