File: Jesse_Dataset_v2/Pure Raman/Polypropylene oxide/633nm/ps-ppo-7jan25-0,0000-map2_Y08_X04.txt
182.393	694
192.79	586
203.174	508
213.542	414
223.897	592
234.238	1206
244.566	858
254.878	452
265.178	304
275.463	286
285.734	368
295.992	634
306.236	468
316.467	356
326.684	338
336.887	376
347.075	348
357.251	358
367.413	306
377.562	320
387.697	248
397.819	224
407.926	266
418.02	334
428.101	226
438.169	178
448.223	168
458.264	188
468.291	226
478.306	384
488.307	440
498.294	228
508.269	240
518.23	304
528.177	394
538.113	746
548.034	450
557.942	488
567.838	2602
577.72	1564
587.589	608
597.446	446
607.289	238
617.119	222
626.936	260
636.741	308
646.533	238
656.313	192
666.078	162
675.831	152
685.571	166
695.299	166
705.014	176
714.716	246
724.406	198
734.082	204
743.746	272
753.398	300
763.037	190
772.664	188
782.278	208
791.879	188
801.467	184
811.044	216
820.608	246
830.16	786
839.699	402
849.226	266
858.741	224
868.243	202
877.731	176
887.209	184
896.674	166
906.128	172
915.569	170
924.997	168
934.414	202
943.818	248
953.211	542
962.59	906
971.958	448
981.314	238
990.659	236
999.99	188
1009.31	202
1018.62	220
1027.91	264
1037.2	282
1046.47	234
1055.73	212
1064.98	198
1074.22	200
1083.44	200
1092.65	214
1101.86	238
1111.05	798
1120.22	380
1129.39	258
1138.54	240
1147.69	224
1156.82	242
1165.94	270
1175.05	258
1184.14	562
1193.23	436
1202.3	490
1211.36	298
1220.41	234
1229.45	342
1238.48	252
1247.5	222
1256.5	220
1265.49	228
1274.48	264
1283.45	360
1292.41	496
1301.36	1532
1310.29	1346
1319.22	532
1328.13	474
1337.04	336
1345.93	370
1354.81	342
1363.68	308
1372.54	522
1381.38	1024
1390.22	402
1399.05	272
1407.86	270
1416.66	326
1425.46	416
1434.24	448
1443.01	502
1451.77	398
1460.52	358
1469.25	384
1477.98	370
1486.7	300
1495.4	300
1504.1	286
1512.78	276
1521.45	270
1530.11	280
1538.76	276
1547.41	266
1556.03	292
1564.65	292
1573.26	344
1581.86	454
1590.45	770
1599.02	1362
1607.59	1300
1616.14	722
1624.69	392
1633.22	292
1641.75	262
1650.26	252
1658.76	242
1667.26	232
1675.74	226
1684.21	236
1692.67	248
1701.12	252
1709.56	254
1717.99	230
1726.41	222
1734.82	208
1743.22	224
1751.61	224
1759.99	208
1768.36	218
1776.71	220
1785.06	210
1793.4	208
1801.73	212
1810.04	196
1818.35	198
1826.65	200
1834.94	186
1843.21	212
1851.48	218
1859.74	198
1867.98	208
1876.22	216
1884.45	188
1892.67	212
1900.87	196
1909.07	194
1917.26	208
1925.43	208
1933.6	202
1941.76	208
1949.91	206
1958.05	204
1966.17	204
1974.29	202
1982.4	212
1990.5	218
1998.59	214
2006.67	212
2014.74	204
2022.8	210
2030.85	206
2038.89	224
2046.92	220
2054.94	212
2062.95	208
2070.96	206
2078.95	226
2086.93	218
2094.91	204
2102.87	210
2110.83	220
2118.77	208
2126.71	212
2134.63	216
2142.55	218
2150.46	212
2158.35	234
2166.24	222
2174.12	208
2181.99	202
2189.85	208
2197.7	214
2205.55	198
2213.38	212
2221.2	220
2229.02	194
2236.82	204
2244.62	198
2252.4	210
2260.18	200
2267.95	196
2275.71	208
2283.46	228
2291.2	212
2298.93	212
2306.65	214
2314.37	230
2322.07	206
2329.77	222
2337.45	220
2345.13	224
2352.8	218
2360.46	200
2368.11	196
2375.75	218
2383.38	226
2391.01	216
2398.62	204
2406.23	230
2413.82	234
2421.41	214
2428.99	216
2436.56	206
2444.12	220
2449.79	212