File: Jesse_Dataset_v2/Pure Raman/Polypropylene oxide/633nm/ps-ppo-7jan25-0,0000-map2_Y02_X01.txt
182.393	746
192.79	606
203.174	534
213.542	460
223.897	646
234.238	1272
244.566	930
254.878	486
265.178	322
275.463	308
285.734	388
295.992	634
306.236	486
316.467	396
326.684	386
336.887	418
347.075	380
357.251	398
367.413	340
377.562	336
387.697	288
397.819	248
407.926	310
418.02	376
428.101	240
438.169	208
448.223	194
458.264	188
468.291	256
478.306	396
488.307	462
498.294	272
508.269	276
518.23	332
528.177	402
538.113	818
548.034	474
557.942	544
567.838	2750
577.72	1608
587.589	612
597.446	472
607.289	276
617.119	242
626.936	290
636.741	352
646.533	270
656.313	220
666.078	198
675.831	184
685.571	202
695.299	168
705.014	202
714.716	276
724.406	236
734.082	226
743.746	278
753.398	324
763.037	224
772.664	224
782.278	228
791.879	214
801.467	198
811.044	218
820.608	258
830.16	820
839.699	404
849.226	294
858.741	268
868.243	214
877.731	210
887.209	210
896.674	186
906.128	198
915.569	194
924.997	208
934.414	214
943.818	258
953.211	596
962.59	886
971.958	468
981.314	266
990.659	244
999.99	226
1009.31	216
1018.62	242
1027.91	286
1037.2	288
1046.47	250
1055.73	242
1064.98	222
1074.22	220
1083.44	234
1092.65	242
1101.86	260
1111.05	898
1120.22	406
1129.39	288
1138.54	258
1147.69	248
1156.82	252
1165.94	284
1175.05	294
1184.14	566
1193.23	458
1202.3	498
1211.36	324
1220.41	248
1229.45	364
1238.48	260
1247.5	238
1256.5	236
1265.49	280
1274.48	304
1283.45	360
1292.41	534
1301.36	1632
1310.29	1368
1319.22	602
1328.13	492
1337.04	378
1345.93	382
1354.81	364
1363.68	316
1372.54	570
1381.38	1040
1390.22	418
1399.05	294
1407.86	298
1416.66	334
1425.46	446
1434.24	490
1443.01	524
1451.77	418
1460.52	408
1469.25	396
1477.98	412
1486.7	340
1495.4	278
1504.1	300
1512.78	282
1521.45	294
1530.11	294
1538.76	298
1547.41	318
1556.03	302
1564.65	306
1573.26	364
1581.86	446
1590.45	772
1599.02	1412
1607.59	1330
1616.14	756
1624.69	378
1633.22	310
1641.75	274
1650.26	282
1658.76	258
1667.26	254
1675.74	242
1684.21	256
1692.67	276
1701.12	252
1709.56	244
1717.99	266
1726.41	232
1734.82	226
1743.22	246
1751.61	240
1759.99	210
1768.36	240
1776.71	236
1785.06	220
1793.4	236
1801.73	204
1810.04	238
1818.35	208
1826.65	240
1834.94	224
1843.21	212
1851.48	224
1859.74	210
1867.98	212
1876.22	212
1884.45	216
1892.67	220
1900.87	214
1909.07	240
1917.26	198
1925.43	218
1933.6	222
1941.76	214
1949.91	220
1958.05	212
1966.17	240
1974.29	214
1982.4	234
1990.5	210
1998.59	226
2006.67	252
2014.74	218
2022.8	222
2030.85	212
2038.89	240
2046.92	228
2054.94	226
2062.95	222
2070.96	210
2078.95	220
2086.93	224
2094.91	218
2102.87	226
2110.83	208
2118.77	224
2126.71	246
2134.63	230
2142.55	222
2150.46	208
2158.35	236
2166.24	206
2174.12	210
2181.99	212
2189.85	228
2197.7	226
2205.55	212
2213.38	222
2221.2	216
2229.02	224
2236.82	210
2244.62	216
2252.4	236
2260.18	228
2267.95	224
2275.71	236
2283.46	226
2291.2	230
2298.93	222
2306.65	216
2314.37	232
2322.07	222
2329.77	222
2337.45	230
2345.13	224
2352.8	242
2360.46	232
2368.11	228
2375.75	222
2383.38	216
2391.01	230
2398.62	240
2406.23	220
2413.82	228
2421.41	222
2428.99	194
2436.56	224
2444.12	226
2449.79	202