File: Jesse_Dataset_v2/Pure Raman/Polypropylene oxide/633nm/ps-ppo-7jan25-0,0000-map2_Y04_X02.txt
182.393	696
192.79	610
203.174	500
213.542	438
223.897	610
234.238	1266
244.566	914
254.878	462
265.178	304
275.463	274
285.734	388
295.992	616
306.236	442
316.467	358
326.684	400
336.887	410
347.075	342
357.251	354
367.413	342
377.562	308
387.697	238
397.819	230
407.926	274
418.02	376
428.101	244
438.169	186
448.223	182
458.264	166
468.291	242
478.306	384
488.307	452
498.294	218
508.269	252
518.23	320
528.177	384
538.113	800
548.034	450
557.942	518
567.838	2692
577.72	1544
587.589	606
597.446	460
607.289	224
617.119	234
626.936	270
636.741	316
646.533	252
656.313	194
666.078	170
675.831	154
685.571	174
695.299	172
705.014	184
714.716	242
724.406	200
734.082	200
743.746	264
753.398	284
763.037	190
772.664	204
782.278	222
791.879	204
801.467	194
811.044	214
820.608	230
830.16	812
839.699	406
849.226	254
858.741	232
868.243	202
877.731	186
887.209	176
896.674	154
906.128	186
915.569	168
924.997	184
934.414	212
943.818	248
953.211	546
962.59	866
971.958	462
981.314	244
990.659	218
999.99	192
1009.31	194
1018.62	230
1027.91	252
1037.2	272
1046.47	234
1055.73	198
1064.98	200
1074.22	194
1083.44	200
1092.65	214
1101.86	250
1111.05	814
1120.22	352
1129.39	258
1138.54	250
1147.69	212
1156.82	248
1165.94	250
1175.05	278
1184.14	564
1193.23	458
1202.3	490
1211.36	308
1220.41	240
1229.45	342
1238.48	248
1247.5	230
1256.5	234
1265.49	254
1274.48	258
1283.45	376
1292.41	494
1301.36	1572
1310.29	1316
1319.22	566
1328.13	446
1337.04	320
1345.93	356
1354.81	342
1363.68	306
1372.54	518
1381.38	1008
1390.22	418
1399.05	274
1407.86	280
1416.66	328
1425.46	410
1434.24	470
1443.01	512
1451.77	398
1460.52	382
1469.25	378
1477.98	358
1486.7	324
1495.4	282
1504.1	266
1512.78	278
1521.45	292
1530.11	278
1538.76	288
1547.41	286
1556.03	276
1564.65	274
1573.26	332
1581.86	412
1590.45	748
1599.02	1356
1607.59	1302
1616.14	744
1624.69	364
1633.22	282
1641.75	242
1650.26	230
1658.76	256
1667.26	232
1675.74	230
1684.21	226
1692.67	248
1701.12	242
1709.56	236
1717.99	228
1726.41	222
1734.82	222
1743.22	218
1751.61	228
1759.99	208
1768.36	202
1776.71	212
1785.06	208
1793.4	200
1801.73	200
1810.04	206
1818.35	208
1826.65	210
1834.94	212
1843.21	208
1851.48	202
1859.74	204
1867.98	212
1876.22	212
1884.45	214
1892.67	200
1900.87	202
1909.07	212
1917.26	202
1925.43	196
1933.6	218
1941.76	200
1949.91	202
1958.05	218
1966.17	218
1974.29	206
1982.4	180
1990.5	214
1998.59	200
2006.67	206
2014.74	212
2022.8	206
2030.85	214
2038.89	218
2046.92	202
2054.94	214
2062.95	206
2070.96	198
2078.95	202
2086.93	224
2094.91	222
2102.87	214
2110.83	202
2118.77	208
2126.71	202
2134.63	192
2142.55	218
2150.46	196
2158.35	198
2166.24	202
2174.12	210
2181.99	208
2189.85	192
2197.7	208
2205.55	210
2213.38	210
2221.2	214
2229.02	206
2236.82	200
2244.62	200
2252.4	220
2260.18	210
2267.95	202
2275.71	210
2283.46	210
2291.2	204
2298.93	224
2306.65	220
2314.37	210
2322.07	224
2329.77	206
2337.45	206
2345.13	196
2352.8	222
2360.46	202
2368.11	222
2375.75	218
2383.38	218
2391.01	230
2398.62	212
2406.23	218
2413.82	214
2421.41	206
2428.99	196
2436.56	204
2444.12	208
2449.79	216