File: Jesse_Dataset_v2/Pure Raman/Polypropylene oxide/633nm/ps-ppo-7jan25-0,0000-map2_Y03_X04.txt
182.393	700
192.79	594
203.174	508
213.542	456
223.897	604
234.238	1286
244.566	892
254.878	482
265.178	290
275.463	288
285.734	386
295.992	640
306.236	444
316.467	390
326.684	354
336.887	372
347.075	340
357.251	364
367.413	316
377.562	302
387.697	248
397.819	220
407.926	286
418.02	336
428.101	246
438.169	178
448.223	150
458.264	176
468.291	242
478.306	404
488.307	434
498.294	218
508.269	248
518.23	326
528.177	396
538.113	764
548.034	420
557.942	496
567.838	2682
577.72	1522
587.589	618
597.446	458
607.289	226
617.119	218
626.936	286
636.741	334
646.533	248
656.313	208
666.078	172
675.831	168
685.571	168
695.299	170
705.014	184
714.716	248
724.406	198
734.082	220
743.746	292
753.398	290
763.037	194
772.664	188
782.278	226
791.879	204
801.467	208
811.044	194
820.608	230
830.16	836
839.699	408
849.226	286
858.741	236
868.243	214
877.731	196
887.209	172
896.674	190
906.128	178
915.569	166
924.997	184
934.414	216
943.818	248
953.211	538
962.59	946
971.958	476
981.314	240
990.659	222
999.99	216
1009.31	210
1018.62	218
1027.91	276
1037.2	282
1046.47	228
1055.73	208
1064.98	208
1074.22	202
1083.44	202
1092.65	218
1101.86	242
1111.05	826
1120.22	380
1129.39	262
1138.54	256
1147.69	246
1156.82	250
1165.94	254
1175.05	276
1184.14	544
1193.23	452
1202.3	470
1211.36	298
1220.41	272
1229.45	354
1238.48	270
1247.5	252
1256.5	244
1265.49	252
1274.48	284
1283.45	356
1292.41	502
1301.36	1534
1310.29	1360
1319.22	536
1328.13	472
1337.04	354
1345.93	382
1354.81	364
1363.68	292
1372.54	554
1381.38	1014
1390.22	394
1399.05	276
1407.86	274
1416.66	328
1425.46	420
1434.24	498
1443.01	482
1451.77	402
1460.52	382
1469.25	364
1477.98	370
1486.7	308
1495.4	300
1504.1	284
1512.78	274
1521.45	270
1530.11	270
1538.76	278
1547.41	276
1556.03	302
1564.65	310
1573.26	330
1581.86	444
1590.45	770
1599.02	1354
1607.59	1292
1616.14	732
1624.69	398
1633.22	304
1641.75	266
1650.26	256
1658.76	246
1667.26	222
1675.74	226
1684.21	254
1692.67	260
1701.12	260
1709.56	248
1717.99	242
1726.41	230
1734.82	242
1743.22	208
1751.61	210
1759.99	234
1768.36	234
1776.71	226
1785.06	216
1793.4	252
1801.73	228
1810.04	208
1818.35	216
1826.65	226
1834.94	214
1843.21	202
1851.48	212
1859.74	232
1867.98	214
1876.22	200
1884.45	226
1892.67	202
1900.87	210
1909.07	212
1917.26	210
1925.43	204
1933.6	218
1941.76	210
1949.91	210
1958.05	202
1966.17	208
1974.29	222
1982.4	234
1990.5	202
1998.59	210
2006.67	228
2014.74	230
2022.8	214
2030.85	204
2038.89	202
2046.92	210
2054.94	208
2062.95	210
2070.96	212
2078.95	232
2086.93	214
2094.91	210
2102.87	200
2110.83	202
2118.77	208
2126.71	198
2134.63	212
2142.55	206
2150.46	216
2158.35	206
2166.24	216
2174.12	216
2181.99	212
2189.85	210
2197.7	202
2205.55	208
2213.38	228
2221.2	228
2229.02	208
2236.82	212
2244.62	222
2252.4	218
2260.18	194
2267.95	212
2275.71	214
2283.46	216
2291.2	206
2298.93	216
2306.65	206
2314.37	222
2322.07	222
2329.77	232
2337.45	228
2345.13	226
2352.8	204
2360.46	226
2368.11	216
2375.75	216
2383.38	214
2391.01	224
2398.62	226
2406.23	228
2413.82	236
2421.41	224
2428.99	206
2436.56	218
2444.12	218
2449.79	202