File: Jesse_Dataset_v2/Pure Raman/Polypropylene oxide/633nm/ps-ppo-7jan25-0,0000-map2_Y10_X00.txt
182.393	686
192.79	590
203.174	502
213.542	444
223.897	606
234.238	1244
244.566	878
254.878	452
265.178	334
275.463	326
285.734	380
295.992	620
306.236	478
316.467	372
326.684	366
336.887	406
347.075	340
357.251	390
367.413	360
377.562	320
387.697	272
397.819	248
407.926	296
418.02	360
428.101	242
438.169	218
448.223	188
458.264	208
468.291	260
478.306	416
488.307	476
498.294	252
508.269	280
518.23	358
528.177	410
538.113	756
548.034	476
557.942	530
567.838	2444
577.72	1530
587.589	588
597.446	452
607.289	266
617.119	252
626.936	272
636.741	354
646.533	266
656.313	230
666.078	196
675.831	192
685.571	194
695.299	182
705.014	198
714.716	270
724.406	232
734.082	232
743.746	288
753.398	324
763.037	224
772.664	214
782.278	236
791.879	220
801.467	224
811.044	220
820.608	272
830.16	788
839.699	432
849.226	272
858.741	264
868.243	214
877.731	226
887.209	190
896.674	200
906.128	212
915.569	218
924.997	210
934.414	224
943.818	266
953.211	580
962.59	916
971.958	488
981.314	270
990.659	248
999.99	230
1009.31	236
1018.62	240
1027.91	268
1037.2	318
1046.47	246
1055.73	240
1064.98	240
1074.22	228
1083.44	214
1092.65	254
1101.86	272
1111.05	822
1120.22	398
1129.39	284
1138.54	292
1147.69	270
1156.82	262
1165.94	280
1175.05	320
1184.14	556
1193.23	458
1202.3	478
1211.36	324
1220.41	272
1229.45	386
1238.48	282
1247.5	274
1256.5	280
1265.49	278
1274.48	284
1283.45	376
1292.41	554
1301.36	1548
1310.29	1348
1319.22	558
1328.13	494
1337.04	342
1345.93	356
1354.81	376
1363.68	336
1372.54	570
1381.38	1010
1390.22	442
1399.05	310
1407.86	292
1416.66	334
1425.46	430
1434.24	468
1443.01	534
1451.77	434
1460.52	434
1469.25	380
1477.98	398
1486.7	354
1495.4	314
1504.1	306
1512.78	304
1521.45	296
1530.11	306
1538.76	280
1547.41	318
1556.03	306
1564.65	324
1573.26	374
1581.86	488
1590.45	792
1599.02	1372
1607.59	1302
1616.14	744
1624.69	420
1633.22	310
1641.75	276
1650.26	284
1658.76	248
1667.26	262
1675.74	246
1684.21	268
1692.67	292
1701.12	274
1709.56	270
1717.99	254
1726.41	256
1734.82	232
1743.22	242
1751.61	258
1759.99	228
1768.36	234
1776.71	262
1785.06	246
1793.4	240
1801.73	250
1810.04	220
1818.35	246
1826.65	254
1834.94	246
1843.21	234
1851.48	252
1859.74	240
1867.98	228
1876.22	226
1884.45	230
1892.67	244
1900.87	238
1909.07	242
1917.26	258
1925.43	234
1933.6	234
1941.76	246
1949.91	238
1958.05	236
1966.17	240
1974.29	240
1982.4	234
1990.5	244
1998.59	226
2006.67	244
2014.74	234
2022.8	232
2030.85	244
2038.89	228
2046.92	236
2054.94	256
2062.95	250
2070.96	246
2078.95	232
2086.93	242
2094.91	236
2102.87	232
2110.83	238
2118.77	228
2126.71	244
2134.63	248
2142.55	240
2150.46	220
2158.35	228
2166.24	244
2174.12	228
2181.99	246
2189.85	246
2197.7	230
2205.55	226
2213.38	238
2221.2	250
2229.02	228
2236.82	242
2244.62	238
2252.4	242
2260.18	242
2267.95	250
2275.71	212
2283.46	240
2291.2	230
2298.93	238
2306.65	232
2314.37	230
2322.07	224
2329.77	238
2337.45	232
2345.13	232
2352.8	238
2360.46	218
2368.11	216
2375.75	234
2383.38	254
2391.01	234
2398.62	238
2406.23	232
2413.82	236
2421.41	214
2428.99	230
2436.56	244
2444.12	238
2449.79	232