File: Jesse_Dataset_v2/Pure Raman/Polypropylene oxide/633nm/ps-ppo-7jan25-0,0000-map2_Y07_X02.txt
182.393	694
192.79	590
203.174	498
213.542	426
223.897	590
234.238	1266
244.566	870
254.878	470
265.178	300
275.463	278
285.734	396
295.992	608
306.236	458
316.467	358
326.684	386
336.887	374
347.075	334
357.251	362
367.413	304
377.562	312
387.697	246
397.819	226
407.926	260
418.02	340
428.101	218
438.169	186
448.223	178
458.264	194
468.291	222
478.306	398
488.307	456
498.294	230
508.269	254
518.23	324
528.177	400
538.113	772
548.034	466
557.942	504
567.838	2738
577.72	1514
587.589	606
597.446	460
607.289	232
617.119	204
626.936	260
636.741	320
646.533	246
656.313	206
666.078	164
675.831	164
685.571	166
695.299	172
705.014	174
714.716	236
724.406	216
734.082	208
743.746	270
753.398	278
763.037	204
772.664	202
782.278	204
791.879	194
801.467	196
811.044	184
820.608	238
830.16	780
839.699	370
849.226	264
858.741	246
868.243	200
877.731	180
887.209	178
896.674	160
906.128	174
915.569	184
924.997	174
934.414	206
943.818	264
953.211	516
962.59	894
971.958	462
981.314	246
990.659	212
999.99	204
1009.31	212
1018.62	228
1027.91	258
1037.2	250
1046.47	214
1055.73	202
1064.98	200
1074.22	192
1083.44	198
1092.65	214
1101.86	242
1111.05	808
1120.22	378
1129.39	262
1138.54	242
1147.69	246
1156.82	256
1165.94	266
1175.05	254
1184.14	552
1193.23	450
1202.3	470
1211.36	326
1220.41	244
1229.45	344
1238.48	248
1247.5	232
1256.5	242
1265.49	246
1274.48	248
1283.45	348
1292.41	480
1301.36	1544
1310.29	1386
1319.22	554
1328.13	486
1337.04	350
1345.93	356
1354.81	354
1363.68	320
1372.54	512
1381.38	1044
1390.22	402
1399.05	268
1407.86	272
1416.66	302
1425.46	410
1434.24	452
1443.01	518
1451.77	388
1460.52	396
1469.25	358
1477.98	350
1486.7	302
1495.4	284
1504.1	282
1512.78	248
1521.45	262
1530.11	276
1538.76	268
1547.41	280
1556.03	292
1564.65	296
1573.26	328
1581.86	448
1590.45	730
1599.02	1364
1607.59	1278
1616.14	722
1624.69	392
1633.22	308
1641.75	264
1650.26	248
1658.76	238
1667.26	238
1675.74	214
1684.21	252
1692.67	250
1701.12	236
1709.56	256
1717.99	208
1726.41	222
1734.82	206
1743.22	206
1751.61	222
1759.99	198
1768.36	216
1776.71	210
1785.06	216
1793.4	208
1801.73	206
1810.04	212
1818.35	202
1826.65	220
1834.94	202
1843.21	200
1851.48	200
1859.74	194
1867.98	210
1876.22	190
1884.45	222
1892.67	224
1900.87	210
1909.07	216
1917.26	212
1925.43	194
1933.6	214
1941.76	200
1949.91	202
1958.05	212
1966.17	194
1974.29	204
1982.4	188
1990.5	210
1998.59	214
2006.67	230
2014.74	196
2022.8	212
2030.85	198
2038.89	196
2046.92	212
2054.94	206
2062.95	216
2070.96	214
2078.95	216
2086.93	222
2094.91	208
2102.87	200
2110.83	222
2118.77	196
2126.71	206
2134.63	214
2142.55	198
2150.46	182
2158.35	208
2166.24	204
2174.12	206
2181.99	204
2189.85	220
2197.7	210
2205.55	212
2213.38	204
2221.2	210
2229.02	210
2236.82	198
2244.62	198
2252.4	218
2260.18	212
2267.95	194
2275.71	212
2283.46	232
2291.2	206
2298.93	218
2306.65	224
2314.37	220
2322.07	232
2329.77	218
2337.45	214
2345.13	202
2352.8	200
2360.46	204
2368.11	206
2375.75	220
2383.38	214
2391.01	222
2398.62	214
2406.23	228
2413.82	206
2421.41	206
2428.99	204
2436.56	198
2444.12	228
2449.79	200