File: Jesse_Dataset_v2/Pure Raman/Polypropylene oxide/633nm/ps-ppo-7jan25-0,0000-map2_Y10_X05.txt
182.393	656
192.79	576
203.174	486
213.542	452
223.897	532
234.238	1224
244.566	854
254.878	462
265.178	302
275.463	280
285.734	346
295.992	628
306.236	436
316.467	358
326.684	370
336.887	372
347.075	338
357.251	346
367.413	320
377.562	296
387.697	238
397.819	236
407.926	272
418.02	364
428.101	222
438.169	196
448.223	162
458.264	174
468.291	206
478.306	372
488.307	460
498.294	246
508.269	244
518.23	314
528.177	370
538.113	720
548.034	428
557.942	504
567.838	2518
577.72	1564
587.589	566
597.446	454
607.289	230
617.119	210
626.936	262
636.741	316
646.533	238
656.313	200
666.078	186
675.831	148
685.571	166
695.299	164
705.014	182
714.716	222
724.406	200
734.082	204
743.746	270
753.398	278
763.037	192
772.664	192
782.278	232
791.879	192
801.467	186
811.044	196
820.608	260
830.16	730
839.699	406
849.226	272
858.741	222
868.243	202
877.731	210
887.209	162
896.674	174
906.128	194
915.569	186
924.997	192
934.414	186
943.818	252
953.211	530
962.59	868
971.958	418
981.314	242
990.659	242
999.99	194
1009.31	202
1018.62	222
1027.91	244
1037.2	278
1046.47	214
1055.73	208
1064.98	196
1074.22	196
1083.44	186
1092.65	202
1101.86	242
1111.05	758
1120.22	386
1129.39	276
1138.54	226
1147.69	222
1156.82	240
1165.94	274
1175.05	276
1184.14	542
1193.23	414
1202.3	428
1211.36	302
1220.41	240
1229.45	350
1238.48	238
1247.5	248
1256.5	222
1265.49	228
1274.48	262
1283.45	368
1292.41	472
1301.36	1540
1310.29	1320
1319.22	558
1328.13	464
1337.04	360
1345.93	376
1354.81	362
1363.68	302
1372.54	536
1381.38	1030
1390.22	412
1399.05	274
1407.86	276
1416.66	312
1425.46	402
1434.24	472
1443.01	496
1451.77	388
1460.52	370
1469.25	352
1477.98	348
1486.7	306
1495.4	282
1504.1	270
1512.78	282
1521.45	256
1530.11	272
1538.76	276
1547.41	288
1556.03	280
1564.65	302
1573.26	334
1581.86	468
1590.45	778
1599.02	1336
1607.59	1262
1616.14	744
1624.69	394
1633.22	284
1641.75	242
1650.26	256
1658.76	230
1667.26	222
1675.74	226
1684.21	212
1692.67	242
1701.12	238
1709.56	228
1717.99	218
1726.41	218
1734.82	208
1743.22	204
1751.61	210
1759.99	202
1768.36	204
1776.71	212
1785.06	218
1793.4	198
1801.73	212
1810.04	208
1818.35	208
1826.65	206
1834.94	208
1843.21	210
1851.48	220
1859.74	194
1867.98	210
1876.22	206
1884.45	204
1892.67	206
1900.87	198
1909.07	204
1917.26	224
1925.43	212
1933.6	216
1941.76	204
1949.91	202
1958.05	228
1966.17	204
1974.29	220
1982.4	214
1990.5	198
1998.59	230
2006.67	192
2014.74	202
2022.8	224
2030.85	218
2038.89	200
2046.92	214
2054.94	196
2062.95	230
2070.96	190
2078.95	204
2086.93	212
2094.91	210
2102.87	216
2110.83	222
2118.77	204
2126.71	196
2134.63	222
2142.55	206
2150.46	216
2158.35	230
2166.24	216
2174.12	208
2181.99	222
2189.85	222
2197.7	194
2205.55	210
2213.38	224
2221.2	230
2229.02	218
2236.82	206
2244.62	216
2252.4	226
2260.18	208
2267.95	216
2275.71	202
2283.46	222
2291.2	216
2298.93	216
2306.65	208
2314.37	230
2322.07	244
2329.77	220
2337.45	218
2345.13	234
2352.8	216
2360.46	204
2368.11	220
2375.75	216
2383.38	210
2391.01	220
2398.62	218
2406.23	218
2413.82	210
2421.41	198
2428.99	206
2436.56	204
2444.12	210
2449.79	208