File: Jesse_Dataset_v2/Pure Raman/Polypropylene oxide/633nm/ps-ppo-7jan25-0,0000-map2_Y02_X08.txt
182.393	708
192.79	606
203.174	518
213.542	454
223.897	594
234.238	1288
244.566	888
254.878	504
265.178	294
275.463	302
285.734	394
295.992	630
306.236	476
316.467	382
326.684	376
336.887	410
347.075	360
357.251	394
367.413	352
377.562	320
387.697	256
397.819	246
407.926	292
418.02	366
428.101	226
438.169	208
448.223	174
458.264	186
468.291	248
478.306	402
488.307	458
498.294	240
508.269	258
518.23	310
528.177	396
538.113	792
548.034	464
557.942	520
567.838	2728
577.72	1560
587.589	582
597.446	442
607.289	246
617.119	238
626.936	282
636.741	332
646.533	248
656.313	210
666.078	188
675.831	170
685.571	180
695.299	170
705.014	202
714.716	276
724.406	230
734.082	204
743.746	294
753.398	288
763.037	202
772.664	200
782.278	228
791.879	184
801.467	196
811.044	212
820.608	236
830.16	832
839.699	408
849.226	266
858.741	240
868.243	222
877.731	198
887.209	190
896.674	182
906.128	192
915.569	190
924.997	196
934.414	200
943.818	270
953.211	532
962.59	946
971.958	480
981.314	262
990.659	228
999.99	216
1009.31	204
1018.62	222
1027.91	278
1037.2	296
1046.47	236
1055.73	214
1064.98	206
1074.22	216
1083.44	210
1092.65	234
1101.86	250
1111.05	826
1120.22	394
1129.39	268
1138.54	252
1147.69	224
1156.82	240
1165.94	282
1175.05	296
1184.14	562
1193.23	444
1202.3	466
1211.36	318
1220.41	258
1229.45	388
1238.48	256
1247.5	216
1256.5	234
1265.49	264
1274.48	278
1283.45	370
1292.41	504
1301.36	1596
1310.29	1360
1319.22	556
1328.13	482
1337.04	348
1345.93	360
1354.81	388
1363.68	328
1372.54	580
1381.38	1044
1390.22	406
1399.05	258
1407.86	274
1416.66	332
1425.46	410
1434.24	480
1443.01	496
1451.77	414
1460.52	370
1469.25	380
1477.98	360
1486.7	312
1495.4	280
1504.1	280
1512.78	282
1521.45	286
1530.11	280
1538.76	282
1547.41	284
1556.03	284
1564.65	300
1573.26	358
1581.86	464
1590.45	796
1599.02	1368
1607.59	1296
1616.14	732
1624.69	410
1633.22	308
1641.75	280
1650.26	248
1658.76	246
1667.26	236
1675.74	240
1684.21	242
1692.67	238
1701.12	274
1709.56	244
1717.99	246
1726.41	226
1734.82	212
1743.22	230
1751.61	224
1759.99	218
1768.36	214
1776.71	218
1785.06	224
1793.4	218
1801.73	224
1810.04	204
1818.35	202
1826.65	212
1834.94	198
1843.21	204
1851.48	224
1859.74	224
1867.98	210
1876.22	202
1884.45	214
1892.67	200
1900.87	212
1909.07	214
1917.26	224
1925.43	210
1933.6	220
1941.76	208
1949.91	220
1958.05	222
1966.17	210
1974.29	200
1982.4	218
1990.5	218
1998.59	196
2006.67	212
2014.74	220
2022.8	210
2030.85	232
2038.89	216
2046.92	206
2054.94	220
2062.95	226
2070.96	216
2078.95	210
2086.93	200
2094.91	202
2102.87	210
2110.83	226
2118.77	224
2126.71	212
2134.63	220
2142.55	216
2150.46	214
2158.35	226
2166.24	214
2174.12	226
2181.99	210
2189.85	220
2197.7	222
2205.55	200
2213.38	208
2221.2	202
2229.02	210
2236.82	224
2244.62	226
2252.4	200
2260.18	218
2267.95	220
2275.71	226
2283.46	210
2291.2	204
2298.93	220
2306.65	208
2314.37	210
2322.07	234
2329.77	212
2337.45	206
2345.13	214
2352.8	210
2360.46	212
2368.11	204
2375.75	222
2383.38	226
2391.01	222
2398.62	206
2406.23	242
2413.82	216
2421.41	228
2428.99	222
2436.56	210
2444.12	220
2449.79	218