File: Jesse_Dataset_v2/Pure Raman/Polypropylene oxide/633nm/ps-ppo-7jan25-0,0000-map2_Y05_X04.txt
182.393	702
192.79	614
203.174	522
213.542	460
223.897	564
234.238	1276
244.566	868
254.878	480
265.178	318
275.463	264
285.734	372
295.992	630
306.236	468
316.467	358
326.684	378
336.887	408
347.075	364
357.251	350
367.413	330
377.562	282
387.697	248
397.819	240
407.926	278
418.02	346
428.101	230
438.169	190
448.223	178
458.264	176
468.291	248
478.306	414
488.307	454
498.294	232
508.269	264
518.23	324
528.177	380
538.113	778
548.034	456
557.942	500
567.838	2706
577.72	1568
587.589	600
597.446	440
607.289	242
617.119	212
626.936	260
636.741	316
646.533	270
656.313	200
666.078	160
675.831	158
685.571	162
695.299	162
705.014	190
714.716	258
724.406	202
734.082	202
743.746	258
753.398	302
763.037	198
772.664	196
782.278	210
791.879	184
801.467	196
811.044	212
820.608	230
830.16	766
839.699	378
849.226	262
858.741	230
868.243	182
877.731	202
887.209	188
896.674	170
906.128	174
915.569	170
924.997	166
934.414	198
943.818	256
953.211	538
962.59	898
971.958	438
981.314	250
990.659	232
999.99	216
1009.31	192
1018.62	218
1027.91	280
1037.2	274
1046.47	210
1055.73	202
1064.98	188
1074.22	188
1083.44	194
1092.65	202
1101.86	250
1111.05	824
1120.22	358
1129.39	274
1138.54	252
1147.69	222
1156.82	256
1165.94	270
1175.05	262
1184.14	556
1193.23	434
1202.3	454
1211.36	304
1220.41	226
1229.45	366
1238.48	248
1247.5	208
1256.5	218
1265.49	250
1274.48	272
1283.45	366
1292.41	516
1301.36	1512
1310.29	1324
1319.22	536
1328.13	468
1337.04	326
1345.93	364
1354.81	356
1363.68	298
1372.54	540
1381.38	1038
1390.22	382
1399.05	262
1407.86	276
1416.66	330
1425.46	398
1434.24	458
1443.01	494
1451.77	410
1460.52	376
1469.25	338
1477.98	350
1486.7	292
1495.4	302
1504.1	284
1512.78	272
1521.45	254
1530.11	270
1538.76	274
1547.41	286
1556.03	268
1564.65	292
1573.26	332
1581.86	456
1590.45	794
1599.02	1332
1607.59	1294
1616.14	740
1624.69	386
1633.22	306
1641.75	260
1650.26	252
1658.76	256
1667.26	246
1675.74	218
1684.21	226
1692.67	224
1701.12	252
1709.56	230
1717.99	228
1726.41	214
1734.82	214
1743.22	206
1751.61	200
1759.99	220
1768.36	200
1776.71	202
1785.06	196
1793.4	184
1801.73	214
1810.04	222
1818.35	206
1826.65	200
1834.94	208
1843.21	200
1851.48	206
1859.74	190
1867.98	206
1876.22	192
1884.45	188
1892.67	210
1900.87	208
1909.07	192
1917.26	200
1925.43	224
1933.6	212
1941.76	202
1949.91	198
1958.05	196
1966.17	208
1974.29	202
1982.4	196
1990.5	210
1998.59	208
2006.67	208
2014.74	218
2022.8	204
2030.85	206
2038.89	194
2046.92	206
2054.94	196
2062.95	222
2070.96	214
2078.95	190
2086.93	208
2094.91	220
2102.87	220
2110.83	202
2118.77	196
2126.71	210
2134.63	196
2142.55	212
2150.46	206
2158.35	212
2166.24	202
2174.12	186
2181.99	210
2189.85	200
2197.7	200
2205.55	194
2213.38	192
2221.2	200
2229.02	204
2236.82	212
2244.62	202
2252.4	192
2260.18	198
2267.95	202
2275.71	204
2283.46	210
2291.2	202
2298.93	206
2306.65	222
2314.37	216
2322.07	214
2329.77	206
2337.45	196
2345.13	206
2352.8	216
2360.46	204
2368.11	200
2375.75	214
2383.38	220
2391.01	210
2398.62	216
2406.23	218
2413.82	200
2421.41	206
2428.99	216
2436.56	212
2444.12	180
2449.79	206