File: Jesse_Dataset_v2/Pure Raman/Polypropylene oxide/633nm/ps-ppo-7jan25-0,0000-map2_Y04_X01.txt
182.393	696
192.79	588
203.174	516
213.542	466
223.897	600
234.238	1296
244.566	922
254.878	498
265.178	334
275.463	294
285.734	418
295.992	656
306.236	470
316.467	392
326.684	402
336.887	406
347.075	360
357.251	362
367.413	344
377.562	328
387.697	264
397.819	236
407.926	292
418.02	354
428.101	216
438.169	196
448.223	184
458.264	198
468.291	246
478.306	424
488.307	460
498.294	236
508.269	262
518.23	328
528.177	410
538.113	830
548.034	492
557.942	508
567.838	2750
577.72	1568
587.589	626
597.446	468
607.289	256
617.119	234
626.936	278
636.741	332
646.533	252
656.313	214
666.078	188
675.831	188
685.571	172
695.299	182
705.014	196
714.716	262
724.406	222
734.082	208
743.746	288
753.398	302
763.037	204
772.664	204
782.278	226
791.879	204
801.467	206
811.044	230
820.608	262
830.16	808
839.699	396
849.226	264
858.741	246
868.243	206
877.731	200
887.209	188
896.674	184
906.128	178
915.569	200
924.997	198
934.414	224
943.818	266
953.211	540
962.59	920
971.958	504
981.314	250
990.659	256
999.99	206
1009.31	226
1018.62	238
1027.91	268
1037.2	298
1046.47	236
1055.73	220
1064.98	220
1074.22	216
1083.44	212
1092.65	218
1101.86	238
1111.05	846
1120.22	378
1129.39	264
1138.54	246
1147.69	212
1156.82	252
1165.94	294
1175.05	256
1184.14	566
1193.23	462
1202.3	508
1211.36	290
1220.41	258
1229.45	340
1238.48	260
1247.5	256
1256.5	228
1265.49	262
1274.48	268
1283.45	374
1292.41	500
1301.36	1640
1310.29	1356
1319.22	558
1328.13	476
1337.04	348
1345.93	352
1354.81	386
1363.68	338
1372.54	544
1381.38	1040
1390.22	412
1399.05	294
1407.86	280
1416.66	330
1425.46	414
1434.24	486
1443.01	512
1451.77	424
1460.52	422
1469.25	378
1477.98	390
1486.7	332
1495.4	300
1504.1	286
1512.78	272
1521.45	288
1530.11	290
1538.76	274
1547.41	274
1556.03	290
1564.65	296
1573.26	346
1581.86	492
1590.45	808
1599.02	1350
1607.59	1286
1616.14	760
1624.69	402
1633.22	312
1641.75	272
1650.26	254
1658.76	236
1667.26	244
1675.74	238
1684.21	242
1692.67	266
1701.12	262
1709.56	258
1717.99	230
1726.41	228
1734.82	214
1743.22	220
1751.61	224
1759.99	204
1768.36	236
1776.71	230
1785.06	224
1793.4	210
1801.73	230
1810.04	228
1818.35	216
1826.65	240
1834.94	220
1843.21	202
1851.48	224
1859.74	218
1867.98	226
1876.22	222
1884.45	230
1892.67	216
1900.87	206
1909.07	218
1917.26	214
1925.43	228
1933.6	242
1941.76	222
1949.91	218
1958.05	210
1966.17	210
1974.29	228
1982.4	216
1990.5	212
1998.59	200
2006.67	222
2014.74	240
2022.8	222
2030.85	214
2038.89	214
2046.92	222
2054.94	200
2062.95	224
2070.96	236
2078.95	210
2086.93	226
2094.91	210
2102.87	220
2110.83	224
2118.77	224
2126.71	230
2134.63	218
2142.55	222
2150.46	208
2158.35	224
2166.24	214
2174.12	224
2181.99	212
2189.85	216
2197.7	230
2205.55	218
2213.38	196
2221.2	224
2229.02	196
2236.82	244
2244.62	210
2252.4	212
2260.18	220
2267.95	210
2275.71	220
2283.46	222
2291.2	232
2298.93	220
2306.65	208
2314.37	238
2322.07	232
2329.77	222
2337.45	224
2345.13	240
2352.8	214
2360.46	208
2368.11	218
2375.75	210
2383.38	218
2391.01	226
2398.62	226
2406.23	230
2413.82	228
2421.41	212
2428.99	218
2436.56	224
2444.12	198
2449.79	226