File: Jesse_Dataset_v2/Pure Raman/Polypropylene oxide/633nm/ps-ppo-7jan25-0,0000-map2_Y03_X09.txt
182.393	714
192.79	620
203.174	522
213.542	456
223.897	608
234.238	1294
244.566	886
254.878	472
265.178	312
275.463	294
285.734	428
295.992	638
306.236	502
316.467	396
326.684	396
336.887	422
347.075	342
357.251	382
367.413	330
377.562	330
387.697	256
397.819	248
407.926	306
418.02	350
428.101	240
438.169	200
448.223	168
458.264	184
468.291	264
478.306	394
488.307	446
498.294	248
508.269	280
518.23	324
528.177	406
538.113	792
548.034	464
557.942	546
567.838	2756
577.72	1580
587.589	616
597.446	460
607.289	268
617.119	234
626.936	296
636.741	320
646.533	254
656.313	214
666.078	168
675.831	172
685.571	168
695.299	184
705.014	188
714.716	276
724.406	214
734.082	228
743.746	296
753.398	302
763.037	208
772.664	214
782.278	222
791.879	188
801.467	186
811.044	220
820.608	242
830.16	834
839.699	410
849.226	266
858.741	250
868.243	192
877.731	196
887.209	180
896.674	180
906.128	176
915.569	204
924.997	196
934.414	208
943.818	258
953.211	546
962.59	890
971.958	458
981.314	238
990.659	238
999.99	208
1009.31	208
1018.62	254
1027.91	250
1037.2	284
1046.47	246
1055.73	210
1064.98	196
1074.22	208
1083.44	192
1092.65	230
1101.86	274
1111.05	834
1120.22	376
1129.39	242
1138.54	266
1147.69	244
1156.82	260
1165.94	262
1175.05	284
1184.14	578
1193.23	482
1202.3	508
1211.36	330
1220.41	260
1229.45	352
1238.48	268
1247.5	254
1256.5	220
1265.49	246
1274.48	262
1283.45	368
1292.41	528
1301.36	1586
1310.29	1346
1319.22	548
1328.13	480
1337.04	356
1345.93	364
1354.81	358
1363.68	300
1372.54	558
1381.38	1082
1390.22	418
1399.05	278
1407.86	296
1416.66	344
1425.46	414
1434.24	486
1443.01	506
1451.77	406
1460.52	384
1469.25	374
1477.98	366
1486.7	334
1495.4	306
1504.1	278
1512.78	290
1521.45	280
1530.11	274
1538.76	292
1547.41	282
1556.03	296
1564.65	326
1573.26	372
1581.86	488
1590.45	798
1599.02	1386
1607.59	1392
1616.14	782
1624.69	440
1633.22	306
1641.75	294
1650.26	248
1658.76	248
1667.26	228
1675.74	248
1684.21	236
1692.67	268
1701.12	262
1709.56	248
1717.99	232
1726.41	230
1734.82	242
1743.22	234
1751.61	218
1759.99	224
1768.36	234
1776.71	208
1785.06	222
1793.4	216
1801.73	234
1810.04	234
1818.35	226
1826.65	218
1834.94	230
1843.21	232
1851.48	224
1859.74	228
1867.98	232
1876.22	224
1884.45	220
1892.67	218
1900.87	224
1909.07	224
1917.26	236
1925.43	224
1933.6	234
1941.76	208
1949.91	220
1958.05	228
1966.17	216
1974.29	212
1982.4	220
1990.5	208
1998.59	232
2006.67	228
2014.74	228
2022.8	234
2030.85	206
2038.89	218
2046.92	234
2054.94	222
2062.95	228
2070.96	214
2078.95	222
2086.93	232
2094.91	212
2102.87	222
2110.83	224
2118.77	228
2126.71	224
2134.63	202
2142.55	216
2150.46	220
2158.35	240
2166.24	210
2174.12	224
2181.99	222
2189.85	214
2197.7	214
2205.55	200
2213.38	222
2221.2	220
2229.02	214
2236.82	216
2244.62	218
2252.4	202
2260.18	226
2267.95	220
2275.71	222
2283.46	210
2291.2	218
2298.93	216
2306.65	230
2314.37	220
2322.07	206
2329.77	234
2337.45	226
2345.13	208
2352.8	222
2360.46	228
2368.11	218
2375.75	200
2383.38	216
2391.01	240
2398.62	234
2406.23	234
2413.82	228
2421.41	206
2428.99	214
2436.56	200
2444.12	232
2449.79	230