File: Jesse_Dataset_v2/Pure Raman/Polypropylene oxide/633nm/ps-ppo-7jan25-0,0000-map2_Y04_X10.txt
182.393	698
192.79	606
203.174	514
213.542	470
223.897	636
234.238	1298
244.566	888
254.878	502
265.178	334
275.463	284
285.734	404
295.992	634
306.236	472
316.467	398
326.684	392
336.887	442
347.075	366
357.251	392
367.413	354
377.562	320
387.697	282
397.819	244
407.926	304
418.02	370
428.101	252
438.169	206
448.223	194
458.264	188
468.291	266
478.306	428
488.307	478
498.294	234
508.269	266
518.23	324
528.177	406
538.113	828
548.034	446
557.942	508
567.838	2698
577.72	1536
587.589	598
597.446	454
607.289	254
617.119	234
626.936	282
636.741	340
646.533	272
656.313	230
666.078	198
675.831	182
685.571	180
695.299	192
705.014	204
714.716	264
724.406	232
734.082	232
743.746	304
753.398	320
763.037	212
772.664	226
782.278	246
791.879	220
801.467	218
811.044	234
820.608	246
830.16	830
839.699	436
849.226	280
858.741	250
868.243	230
877.731	206
887.209	198
896.674	204
906.128	212
915.569	200
924.997	212
934.414	228
943.818	282
953.211	556
962.59	906
971.958	474
981.314	262
990.659	248
999.99	226
1009.31	222
1018.62	258
1027.91	302
1037.2	292
1046.47	264
1055.73	230
1064.98	230
1074.22	224
1083.44	218
1092.65	220
1101.86	256
1111.05	858
1120.22	428
1129.39	266
1138.54	274
1147.69	242
1156.82	268
1165.94	294
1175.05	304
1184.14	592
1193.23	456
1202.3	490
1211.36	344
1220.41	262
1229.45	372
1238.48	286
1247.5	240
1256.5	252
1265.49	264
1274.48	276
1283.45	370
1292.41	526
1301.36	1578
1310.29	1368
1319.22	568
1328.13	500
1337.04	366
1345.93	378
1354.81	370
1363.68	312
1372.54	556
1381.38	1092
1390.22	404
1399.05	306
1407.86	322
1416.66	350
1425.46	416
1434.24	512
1443.01	528
1451.77	422
1460.52	398
1469.25	390
1477.98	388
1486.7	340
1495.4	290
1504.1	300
1512.78	284
1521.45	314
1530.11	306
1538.76	292
1547.41	284
1556.03	324
1564.65	328
1573.26	348
1581.86	502
1590.45	786
1599.02	1356
1607.59	1292
1616.14	772
1624.69	420
1633.22	320
1641.75	290
1650.26	286
1658.76	254
1667.26	256
1675.74	244
1684.21	238
1692.67	272
1701.12	290
1709.56	270
1717.99	250
1726.41	258
1734.82	220
1743.22	240
1751.61	252
1759.99	234
1768.36	220
1776.71	226
1785.06	250
1793.4	232
1801.73	236
1810.04	226
1818.35	244
1826.65	222
1834.94	230
1843.21	238
1851.48	232
1859.74	222
1867.98	244
1876.22	234
1884.45	234
1892.67	226
1900.87	228
1909.07	238
1917.26	228
1925.43	236
1933.6	256
1941.76	230
1949.91	246
1958.05	224
1966.17	236
1974.29	232
1982.4	248
1990.5	230
1998.59	234
2006.67	228
2014.74	236
2022.8	252
2030.85	212
2038.89	222
2046.92	234
2054.94	234
2062.95	228
2070.96	228
2078.95	206
2086.93	234
2094.91	218
2102.87	226
2110.83	230
2118.77	226
2126.71	240
2134.63	234
2142.55	218
2150.46	232
2158.35	226
2166.24	222
2174.12	244
2181.99	236
2189.85	220
2197.7	220
2205.55	222
2213.38	228
2221.2	250
2229.02	220
2236.82	210
2244.62	254
2252.4	228
2260.18	220
2267.95	244
2275.71	246
2283.46	230
2291.2	218
2298.93	228
2306.65	230
2314.37	238
2322.07	256
2329.77	232
2337.45	220
2345.13	236
2352.8	238
2360.46	220
2368.11	242
2375.75	244
2383.38	236
2391.01	232
2398.62	234
2406.23	230
2413.82	226
2421.41	232
2428.99	232
2436.56	212
2444.12	240
2449.79	222