File: Jesse_Dataset_v2/Pure Raman/Polypropylene oxide/633nm/ps-ppo-7jan25-0,0000-map2_Y06_X06.txt
182.393	704
192.79	582
203.174	506
213.542	450
223.897	554
234.238	1248
244.566	866
254.878	458
265.178	304
275.463	278
285.734	400
295.992	608
306.236	452
316.467	352
326.684	368
336.887	382
347.075	342
357.251	350
367.413	330
377.562	294
387.697	242
397.819	232
407.926	258
418.02	334
428.101	228
438.169	172
448.223	166
458.264	146
468.291	230
478.306	364
488.307	428
498.294	226
508.269	230
518.23	308
528.177	358
538.113	730
548.034	446
557.942	490
567.838	2654
577.72	1506
587.589	590
597.446	430
607.289	236
617.119	216
626.936	278
636.741	296
646.533	260
656.313	188
666.078	162
675.831	144
685.571	150
695.299	160
705.014	152
714.716	222
724.406	208
734.082	184
743.746	258
753.398	274
763.037	194
772.664	170
782.278	214
791.879	164
801.467	170
811.044	188
820.608	236
830.16	776
839.699	368
849.226	262
858.741	226
868.243	198
877.731	190
887.209	164
896.674	162
906.128	156
915.569	156
924.997	180
934.414	174
943.818	238
953.211	528
962.59	888
971.958	412
981.314	234
990.659	204
999.99	182
1009.31	186
1018.62	216
1027.91	230
1037.2	264
1046.47	220
1055.73	180
1064.98	186
1074.22	180
1083.44	190
1092.65	200
1101.86	244
1111.05	794
1120.22	366
1129.39	232
1138.54	212
1147.69	230
1156.82	224
1165.94	242
1175.05	262
1184.14	528
1193.23	436
1202.3	470
1211.36	292
1220.41	222
1229.45	334
1238.48	258
1247.5	204
1256.5	204
1265.49	236
1274.48	246
1283.45	326
1292.41	480
1301.36	1502
1310.29	1316
1319.22	532
1328.13	418
1337.04	312
1345.93	328
1354.81	334
1363.68	306
1372.54	516
1381.38	1028
1390.22	404
1399.05	238
1407.86	272
1416.66	294
1425.46	398
1434.24	428
1443.01	440
1451.77	356
1460.52	334
1469.25	344
1477.98	348
1486.7	314
1495.4	254
1504.1	232
1512.78	270
1521.45	232
1530.11	244
1538.76	276
1547.41	242
1556.03	290
1564.65	290
1573.26	302
1581.86	448
1590.45	746
1599.02	1340
1607.59	1270
1616.14	722
1624.69	372
1633.22	260
1641.75	262
1650.26	224
1658.76	218
1667.26	226
1675.74	210
1684.21	214
1692.67	226
1701.12	242
1709.56	216
1717.99	200
1726.41	214
1734.82	190
1743.22	200
1751.61	186
1759.99	198
1768.36	194
1776.71	190
1785.06	188
1793.4	196
1801.73	192
1810.04	194
1818.35	192
1826.65	194
1834.94	176
1843.21	188
1851.48	180
1859.74	192
1867.98	190
1876.22	198
1884.45	212
1892.67	190
1900.87	184
1909.07	194
1917.26	180
1925.43	200
1933.6	198
1941.76	212
1949.91	192
1958.05	202
1966.17	196
1974.29	200
1982.4	192
1990.5	196
1998.59	202
2006.67	202
2014.74	194
2022.8	210
2030.85	196
2038.89	188
2046.92	200
2054.94	174
2062.95	196
2070.96	196
2078.95	192
2086.93	200
2094.91	184
2102.87	200
2110.83	188
2118.77	176
2126.71	194
2134.63	196
2142.55	190
2150.46	188
2158.35	180
2166.24	184
2174.12	194
2181.99	178
2189.85	190
2197.7	198
2205.55	180
2213.38	188
2221.2	208
2229.02	188
2236.82	194
2244.62	192
2252.4	190
2260.18	204
2267.95	184
2275.71	208
2283.46	186
2291.2	214
2298.93	182
2306.65	190
2314.37	220
2322.07	208
2329.77	202
2337.45	218
2345.13	202
2352.8	202
2360.46	220
2368.11	196
2375.75	208
2383.38	188
2391.01	204
2398.62	204
2406.23	206
2413.82	184
2421.41	182
2428.99	198
2436.56	190
2444.12	190
2449.79	204