File: Jesse_Dataset_v2/Pure Raman/Polypropylene oxide/633nm/ps-ppo-7jan25-0,0000-map2_Y07_X10.txt
182.393	714
192.79	594
203.174	526
213.542	458
223.897	588
234.238	1244
244.566	878
254.878	486
265.178	328
275.463	284
285.734	366
295.992	626
306.236	444
316.467	372
326.684	370
336.887	426
347.075	378
357.251	372
367.413	330
377.562	334
387.697	268
397.819	256
407.926	304
418.02	358
428.101	228
438.169	218
448.223	184
458.264	188
468.291	260
478.306	414
488.307	470
498.294	236
508.269	270
518.23	316
528.177	374
538.113	774
548.034	458
557.942	516
567.838	2518
577.72	1536
587.589	622
597.446	464
607.289	248
617.119	230
626.936	282
636.741	326
646.533	272
656.313	230
666.078	190
675.831	186
685.571	174
695.299	196
705.014	192
714.716	254
724.406	222
734.082	220
743.746	258
753.398	312
763.037	222
772.664	216
782.278	224
791.879	206
801.467	224
811.044	210
820.608	246
830.16	798
839.699	412
849.226	266
858.741	250
868.243	218
877.731	196
887.209	200
896.674	204
906.128	188
915.569	202
924.997	216
934.414	222
943.818	282
953.211	550
962.59	902
971.958	466
981.314	270
990.659	252
999.99	210
1009.31	232
1018.62	238
1027.91	262
1037.2	284
1046.47	250
1055.73	222
1064.98	224
1074.22	212
1083.44	234
1092.65	226
1101.86	264
1111.05	822
1120.22	390
1129.39	290
1138.54	256
1147.69	238
1156.82	260
1165.94	302
1175.05	288
1184.14	528
1193.23	438
1202.3	494
1211.36	314
1220.41	266
1229.45	378
1238.48	262
1247.5	238
1256.5	242
1265.49	248
1274.48	294
1283.45	376
1292.41	500
1301.36	1552
1310.29	1300
1319.22	568
1328.13	470
1337.04	382
1345.93	366
1354.81	384
1363.68	322
1372.54	536
1381.38	1050
1390.22	412
1399.05	282
1407.86	292
1416.66	328
1425.46	444
1434.24	492
1443.01	508
1451.77	428
1460.52	374
1469.25	386
1477.98	386
1486.7	328
1495.4	308
1504.1	306
1512.78	274
1521.45	304
1530.11	286
1538.76	298
1547.41	296
1556.03	298
1564.65	312
1573.26	346
1581.86	472
1590.45	756
1599.02	1294
1607.59	1256
1616.14	760
1624.69	426
1633.22	322
1641.75	280
1650.26	270
1658.76	252
1667.26	256
1675.74	236
1684.21	268
1692.67	278
1701.12	246
1709.56	256
1717.99	266
1726.41	238
1734.82	240
1743.22	228
1751.61	238
1759.99	234
1768.36	244
1776.71	246
1785.06	234
1793.4	240
1801.73	238
1810.04	228
1818.35	238
1826.65	216
1834.94	214
1843.21	240
1851.48	226
1859.74	256
1867.98	234
1876.22	240
1884.45	222
1892.67	228
1900.87	242
1909.07	238
1917.26	238
1925.43	236
1933.6	234
1941.76	226
1949.91	224
1958.05	230
1966.17	224
1974.29	238
1982.4	218
1990.5	228
1998.59	248
2006.67	226
2014.74	236
2022.8	236
2030.85	220
2038.89	224
2046.92	220
2054.94	224
2062.95	228
2070.96	242
2078.95	236
2086.93	242
2094.91	226
2102.87	228
2110.83	230
2118.77	228
2126.71	232
2134.63	230
2142.55	234
2150.46	236
2158.35	222
2166.24	250
2174.12	230
2181.99	228
2189.85	220
2197.7	242
2205.55	212
2213.38	236
2221.2	228
2229.02	222
2236.82	212
2244.62	228
2252.4	210
2260.18	242
2267.95	232
2275.71	220
2283.46	224
2291.2	232
2298.93	238
2306.65	252
2314.37	242
2322.07	230
2329.77	236
2337.45	228
2345.13	222
2352.8	230
2360.46	236
2368.11	246
2375.75	242
2383.38	226
2391.01	242
2398.62	232
2406.23	236
2413.82	232
2421.41	240
2428.99	220
2436.56	232
2444.12	220
2449.79	222