File: Jesse_Dataset_v2/Pure Raman/Polypropylene oxide/633nm/ps-ppo-7jan25-0,0000-map2_Y00_X09.txt
182.393	756
192.79	636
203.174	552
213.542	536
223.897	620
234.238	1328
244.566	920
254.878	488
265.178	354
275.463	314
285.734	458
295.992	672
306.236	514
316.467	434
326.684	406
336.887	442
347.075	378
357.251	390
367.413	392
377.562	364
387.697	300
397.819	256
407.926	302
418.02	382
428.101	290
438.169	246
448.223	238
458.264	220
468.291	286
478.306	434
488.307	500
498.294	266
508.269	318
518.23	378
528.177	454
538.113	850
548.034	508
557.942	600
567.838	2866
577.72	1512
587.589	638
597.446	496
607.289	274
617.119	258
626.936	296
636.741	364
646.533	292
656.313	240
666.078	222
675.831	210
685.571	206
695.299	210
705.014	218
714.716	278
724.406	242
734.082	272
743.746	312
753.398	336
763.037	250
772.664	236
782.278	294
791.879	252
801.467	240
811.044	266
820.608	296
830.16	872
839.699	440
849.226	300
858.741	300
868.243	244
877.731	242
887.209	240
896.674	246
906.128	208
915.569	214
924.997	242
934.414	240
943.818	296
953.211	612
962.59	944
971.958	530
981.314	286
990.659	290
999.99	236
1009.31	248
1018.62	276
1027.91	322
1037.2	334
1046.47	284
1055.73	240
1064.98	262
1074.22	260
1083.44	256
1092.65	254
1101.86	310
1111.05	890
1120.22	426
1129.39	314
1138.54	302
1147.69	272
1156.82	296
1165.94	328
1175.05	320
1184.14	638
1193.23	488
1202.3	512
1211.36	330
1220.41	282
1229.45	396
1238.48	302
1247.5	280
1256.5	274
1265.49	294
1274.48	340
1283.45	430
1292.41	560
1301.36	1682
1310.29	1372
1319.22	558
1328.13	524
1337.04	386
1345.93	410
1354.81	424
1363.68	372
1372.54	614
1381.38	1104
1390.22	462
1399.05	332
1407.86	342
1416.66	388
1425.46	450
1434.24	506
1443.01	574
1451.77	438
1460.52	428
1469.25	426
1477.98	408
1486.7	382
1495.4	342
1504.1	344
1512.78	324
1521.45	346
1530.11	324
1538.76	340
1547.41	350
1556.03	366
1564.65	348
1573.26	370
1581.86	486
1590.45	802
1599.02	1402
1607.59	1356
1616.14	774
1624.69	458
1633.22	344
1641.75	298
1650.26	282
1658.76	294
1667.26	286
1675.74	286
1684.21	282
1692.67	312
1701.12	318
1709.56	290
1717.99	290
1726.41	270
1734.82	266
1743.22	278
1751.61	276
1759.99	264
1768.36	260
1776.71	268
1785.06	264
1793.4	274
1801.73	264
1810.04	270
1818.35	258
1826.65	290
1834.94	254
1843.21	252
1851.48	264
1859.74	244
1867.98	260
1876.22	262
1884.45	284
1892.67	266
1900.87	260
1909.07	272
1917.26	278
1925.43	260
1933.6	264
1941.76	262
1949.91	250
1958.05	248
1966.17	264
1974.29	244
1982.4	268
1990.5	260
1998.59	280
2006.67	240
2014.74	240
2022.8	248
2030.85	266
2038.89	260
2046.92	254
2054.94	252
2062.95	242
2070.96	248
2078.95	270
2086.93	242
2094.91	276
2102.87	264
2110.83	258
2118.77	258
2126.71	248
2134.63	244
2142.55	274
2150.46	260
2158.35	248
2166.24	246
2174.12	262
2181.99	256
2189.85	258
2197.7	256
2205.55	260
2213.38	238
2221.2	246
2229.02	252
2236.82	228
2244.62	240
2252.4	254
2260.18	246
2267.95	262
2275.71	242
2283.46	262
2291.2	244
2298.93	262
2306.65	246
2314.37	264
2322.07	258
2329.77	248
2337.45	250
2345.13	244
2352.8	246
2360.46	236
2368.11	244
2375.75	262
2383.38	262
2391.01	246
2398.62	256
2406.23	264
2413.82	260
2421.41	230
2428.99	234
2436.56	248
2444.12	252
2449.79	242