File: Jesse_Dataset_v2/Pure Raman/Polypropylene oxide/633nm/ps-ppo-7jan25-0,0000-map2_Y04_X06.txt
182.393	676
192.79	562
203.174	486
213.542	424
223.897	562
234.238	1250
244.566	848
254.878	458
265.178	290
275.463	264
285.734	334
295.992	608
306.236	434
316.467	350
326.684	360
336.887	372
347.075	328
357.251	346
367.413	296
377.562	272
387.697	216
397.819	188
407.926	244
418.02	302
428.101	200
438.169	174
448.223	142
458.264	148
468.291	212
478.306	392
488.307	454
498.294	214
508.269	230
518.23	274
528.177	354
538.113	744
548.034	396
557.942	466
567.838	2654
577.72	1478
587.589	568
597.446	424
607.289	212
617.119	182
626.936	222
636.741	274
646.533	228
656.313	158
666.078	150
675.831	134
685.571	142
695.299	134
705.014	152
714.716	212
724.406	162
734.082	182
743.746	240
753.398	250
763.037	172
772.664	172
782.278	182
791.879	174
801.467	164
811.044	172
820.608	206
830.16	758
839.699	362
849.226	218
858.741	198
868.243	160
877.731	164
887.209	144
896.674	140
906.128	140
915.569	154
924.997	144
934.414	168
943.818	206
953.211	498
962.59	874
971.958	402
981.314	220
990.659	194
999.99	168
1009.31	172
1018.62	192
1027.91	218
1037.2	234
1046.47	192
1055.73	174
1064.98	176
1074.22	168
1083.44	178
1092.65	166
1101.86	202
1111.05	818
1120.22	360
1129.39	214
1138.54	218
1147.69	198
1156.82	202
1165.94	232
1175.05	236
1184.14	516
1193.23	418
1202.3	468
1211.36	288
1220.41	204
1229.45	304
1238.48	222
1247.5	170
1256.5	188
1265.49	206
1274.48	248
1283.45	330
1292.41	464
1301.36	1522
1310.29	1274
1319.22	502
1328.13	420
1337.04	296
1345.93	344
1354.81	326
1363.68	278
1372.54	518
1381.38	990
1390.22	368
1399.05	236
1407.86	236
1416.66	298
1425.46	384
1434.24	438
1443.01	454
1451.77	352
1460.52	338
1469.25	344
1477.98	338
1486.7	288
1495.4	250
1504.1	240
1512.78	238
1521.45	246
1530.11	246
1538.76	240
1547.41	234
1556.03	260
1564.65	258
1573.26	284
1581.86	414
1590.45	742
1599.02	1324
1607.59	1266
1616.14	692
1624.69	372
1633.22	254
1641.75	224
1650.26	212
1658.76	198
1667.26	192
1675.74	200
1684.21	202
1692.67	228
1701.12	214
1709.56	200
1717.99	206
1726.41	188
1734.82	186
1743.22	190
1751.61	176
1759.99	178
1768.36	178
1776.71	162
1785.06	182
1793.4	172
1801.73	196
1810.04	164
1818.35	164
1826.65	174
1834.94	162
1843.21	168
1851.48	152
1859.74	160
1867.98	176
1876.22	162
1884.45	172
1892.67	180
1900.87	184
1909.07	172
1917.26	176
1925.43	174
1933.6	194
1941.76	186
1949.91	162
1958.05	172
1966.17	172
1974.29	176
1982.4	180
1990.5	168
1998.59	178
2006.67	160
2014.74	166
2022.8	172
2030.85	182
2038.89	172
2046.92	174
2054.94	168
2062.95	168
2070.96	178
2078.95	176
2086.93	176
2094.91	180
2102.87	184
2110.83	184
2118.77	176
2126.71	176
2134.63	182
2142.55	172
2150.46	172
2158.35	182
2166.24	188
2174.12	190
2181.99	186
2189.85	192
2197.7	182
2205.55	184
2213.38	192
2221.2	182
2229.02	178
2236.82	178
2244.62	188
2252.4	174
2260.18	182
2267.95	174
2275.71	174
2283.46	198
2291.2	180
2298.93	178
2306.65	182
2314.37	208
2322.07	190
2329.77	196
2337.45	198
2345.13	188
2352.8	190
2360.46	184
2368.11	174
2375.75	196
2383.38	192
2391.01	194
2398.62	186
2406.23	182
2413.82	200
2421.41	194
2428.99	194
2436.56	190
2444.12	190
2449.79	192