File: Jesse_Dataset_v2/Pure Raman/Polypropylene oxide/633nm/ps-ppo-7jan25-0,0000-map2_Y08_X00.txt
182.393	708
192.79	610
203.174	506
213.542	460
223.897	592
234.238	1246
244.566	930
254.878	484
265.178	350
275.463	324
285.734	410
295.992	630
306.236	450
316.467	396
326.684	390
336.887	426
347.075	372
357.251	394
367.413	356
377.562	332
387.697	282
397.819	258
407.926	314
418.02	390
428.101	286
438.169	202
448.223	212
458.264	202
468.291	266
478.306	396
488.307	470
498.294	252
508.269	296
518.23	352
528.177	404
538.113	748
548.034	492
557.942	532
567.838	2632
577.72	1576
587.589	596
597.446	490
607.289	266
617.119	246
626.936	274
636.741	372
646.533	282
656.313	226
666.078	196
675.831	194
685.571	210
695.299	184
705.014	218
714.716	282
724.406	240
734.082	232
743.746	310
753.398	322
763.037	224
772.664	226
782.278	242
791.879	230
801.467	222
811.044	230
820.608	258
830.16	820
839.699	440
849.226	298
858.741	276
868.243	220
877.731	206
887.209	214
896.674	190
906.128	218
915.569	202
924.997	198
934.414	246
943.818	292
953.211	562
962.59	918
971.958	498
981.314	288
990.659	252
999.99	236
1009.31	210
1018.62	254
1027.91	282
1037.2	302
1046.47	254
1055.73	246
1064.98	242
1074.22	222
1083.44	242
1092.65	256
1101.86	262
1111.05	878
1120.22	408
1129.39	296
1138.54	280
1147.69	260
1156.82	276
1165.94	312
1175.05	306
1184.14	554
1193.23	466
1202.3	498
1211.36	318
1220.41	274
1229.45	352
1238.48	284
1247.5	258
1256.5	278
1265.49	276
1274.48	314
1283.45	386
1292.41	512
1301.36	1608
1310.29	1348
1319.22	586
1328.13	520
1337.04	380
1345.93	414
1354.81	394
1363.68	348
1372.54	568
1381.38	1058
1390.22	418
1399.05	300
1407.86	292
1416.66	360
1425.46	456
1434.24	488
1443.01	522
1451.77	456
1460.52	406
1469.25	372
1477.98	390
1486.7	346
1495.4	320
1504.1	308
1512.78	306
1521.45	292
1530.11	316
1538.76	308
1547.41	312
1556.03	318
1564.65	364
1573.26	384
1581.86	484
1590.45	788
1599.02	1422
1607.59	1322
1616.14	788
1624.69	404
1633.22	342
1641.75	300
1650.26	278
1658.76	280
1667.26	282
1675.74	288
1684.21	266
1692.67	278
1701.12	276
1709.56	284
1717.99	260
1726.41	264
1734.82	238
1743.22	242
1751.61	256
1759.99	240
1768.36	248
1776.71	258
1785.06	250
1793.4	252
1801.73	242
1810.04	242
1818.35	258
1826.65	230
1834.94	246
1843.21	228
1851.48	260
1859.74	222
1867.98	238
1876.22	252
1884.45	236
1892.67	238
1900.87	244
1909.07	250
1917.26	246
1925.43	250
1933.6	224
1941.76	238
1949.91	234
1958.05	242
1966.17	226
1974.29	230
1982.4	234
1990.5	228
1998.59	226
2006.67	264
2014.74	252
2022.8	230
2030.85	238
2038.89	242
2046.92	256
2054.94	242
2062.95	224
2070.96	246
2078.95	244
2086.93	228
2094.91	234
2102.87	234
2110.83	230
2118.77	232
2126.71	236
2134.63	232
2142.55	242
2150.46	242
2158.35	230
2166.24	220
2174.12	240
2181.99	230
2189.85	234
2197.7	254
2205.55	220
2213.38	234
2221.2	240
2229.02	246
2236.82	248
2244.62	230
2252.4	244
2260.18	244
2267.95	222
2275.71	254
2283.46	228
2291.2	246
2298.93	228
2306.65	250
2314.37	232
2322.07	246
2329.77	246
2337.45	226
2345.13	244
2352.8	242
2360.46	234
2368.11	242
2375.75	234
2383.38	244
2391.01	244
2398.62	260
2406.23	246
2413.82	250
2421.41	248
2428.99	236
2436.56	234
2444.12	254
2449.79	236