File: Jesse_Dataset_v2/Pure Raman/Polypropylene oxide/633nm/ps-ppo-7jan25-0,0000-map2_Y08_X07.txt
182.393	654
192.79	552
203.174	490
213.542	434
223.897	574
234.238	1240
244.566	870
254.878	468
265.178	326
275.463	272
285.734	390
295.992	638
306.236	456
316.467	370
326.684	366
336.887	400
347.075	342
357.251	346
367.413	302
377.562	320
387.697	238
397.819	238
407.926	284
418.02	326
428.101	236
438.169	198
448.223	164
458.264	180
468.291	244
478.306	382
488.307	456
498.294	222
508.269	272
518.23	324
528.177	370
538.113	772
548.034	454
557.942	490
567.838	2538
577.72	1544
587.589	576
597.446	446
607.289	248
617.119	222
626.936	268
636.741	304
646.533	248
656.313	206
666.078	168
675.831	178
685.571	166
695.299	176
705.014	196
714.716	234
724.406	194
734.082	216
743.746	276
753.398	292
763.037	192
772.664	200
782.278	214
791.879	188
801.467	184
811.044	206
820.608	254
830.16	782
839.699	402
849.226	268
858.741	236
868.243	196
877.731	188
887.209	192
896.674	178
906.128	174
915.569	168
924.997	170
934.414	204
943.818	256
953.211	528
962.59	896
971.958	446
981.314	244
990.659	230
999.99	200
1009.31	204
1018.62	204
1027.91	256
1037.2	276
1046.47	240
1055.73	210
1064.98	192
1074.22	192
1083.44	196
1092.65	214
1101.86	240
1111.05	796
1120.22	376
1129.39	264
1138.54	254
1147.69	220
1156.82	258
1165.94	272
1175.05	294
1184.14	530
1193.23	450
1202.3	442
1211.36	330
1220.41	254
1229.45	346
1238.48	230
1247.5	230
1256.5	232
1265.49	242
1274.48	264
1283.45	338
1292.41	496
1301.36	1500
1310.29	1282
1319.22	548
1328.13	450
1337.04	360
1345.93	356
1354.81	354
1363.68	290
1372.54	490
1381.38	1016
1390.22	392
1399.05	276
1407.86	284
1416.66	332
1425.46	412
1434.24	466
1443.01	492
1451.77	400
1460.52	392
1469.25	356
1477.98	364
1486.7	296
1495.4	284
1504.1	268
1512.78	272
1521.45	264
1530.11	302
1538.76	266
1547.41	274
1556.03	304
1564.65	302
1573.26	324
1581.86	418
1590.45	768
1599.02	1372
1607.59	1332
1616.14	732
1624.69	378
1633.22	296
1641.75	246
1650.26	270
1658.76	234
1667.26	228
1675.74	226
1684.21	220
1692.67	286
1701.12	250
1709.56	242
1717.99	244
1726.41	214
1734.82	230
1743.22	216
1751.61	214
1759.99	218
1768.36	212
1776.71	220
1785.06	210
1793.4	208
1801.73	216
1810.04	218
1818.35	198
1826.65	208
1834.94	206
1843.21	214
1851.48	208
1859.74	202
1867.98	204
1876.22	214
1884.45	212
1892.67	228
1900.87	200
1909.07	220
1917.26	214
1925.43	222
1933.6	206
1941.76	210
1949.91	210
1958.05	212
1966.17	224
1974.29	212
1982.4	212
1990.5	224
1998.59	226
2006.67	216
2014.74	230
2022.8	210
2030.85	210
2038.89	208
2046.92	218
2054.94	216
2062.95	202
2070.96	206
2078.95	202
2086.93	210
2094.91	210
2102.87	208
2110.83	228
2118.77	218
2126.71	208
2134.63	218
2142.55	230
2150.46	202
2158.35	222
2166.24	194
2174.12	200
2181.99	232
2189.85	222
2197.7	206
2205.55	212
2213.38	202
2221.2	214
2229.02	210
2236.82	194
2244.62	222
2252.4	222
2260.18	208
2267.95	218
2275.71	208
2283.46	208
2291.2	204
2298.93	214
2306.65	228
2314.37	206
2322.07	220
2329.77	216
2337.45	216
2345.13	226
2352.8	200
2360.46	224
2368.11	200
2375.75	204
2383.38	226
2391.01	208
2398.62	210
2406.23	214
2413.82	222
2421.41	208
2428.99	204
2436.56	220
2444.12	216
2449.79	210