File: Jesse_Dataset_v2/Pure Raman/Polypropylene oxide/633nm/ps-ppo-7jan25-0,0000-map2_Y08_X10.txt
182.393	674
192.79	602
203.174	518
213.542	440
223.897	566
234.238	1260
244.566	862
254.878	480
265.178	314
275.463	298
285.734	362
295.992	608
306.236	432
316.467	386
326.684	376
336.887	426
347.075	344
357.251	360
367.413	322
377.562	316
387.697	258
397.819	244
407.926	286
418.02	338
428.101	238
438.169	214
448.223	190
458.264	222
468.291	254
478.306	364
488.307	456
498.294	252
508.269	254
518.23	322
528.177	388
538.113	734
548.034	440
557.942	498
567.838	2488
577.72	1558
587.589	598
597.446	448
607.289	260
617.119	254
626.936	272
636.741	344
646.533	242
656.313	230
666.078	206
675.831	178
685.571	190
695.299	188
705.014	200
714.716	260
724.406	214
734.082	234
743.746	272
753.398	302
763.037	220
772.664	228
782.278	244
791.879	220
801.467	224
811.044	238
820.608	242
830.16	794
839.699	418
849.226	278
858.741	258
868.243	238
877.731	228
887.209	194
896.674	208
906.128	186
915.569	204
924.997	224
934.414	210
943.818	292
953.211	532
962.59	870
971.958	456
981.314	260
990.659	246
999.99	208
1009.31	222
1018.62	236
1027.91	278
1037.2	324
1046.47	274
1055.73	222
1064.98	232
1074.22	228
1083.44	236
1092.65	236
1101.86	270
1111.05	828
1120.22	378
1129.39	296
1138.54	258
1147.69	246
1156.82	266
1165.94	286
1175.05	306
1184.14	580
1193.23	462
1202.3	476
1211.36	316
1220.41	270
1229.45	368
1238.48	286
1247.5	240
1256.5	258
1265.49	254
1274.48	284
1283.45	412
1292.41	506
1301.36	1532
1310.29	1342
1319.22	564
1328.13	482
1337.04	362
1345.93	376
1354.81	400
1363.68	342
1372.54	584
1381.38	1086
1390.22	420
1399.05	308
1407.86	308
1416.66	326
1425.46	418
1434.24	486
1443.01	516
1451.77	422
1460.52	418
1469.25	400
1477.98	380
1486.7	332
1495.4	320
1504.1	322
1512.78	302
1521.45	310
1530.11	306
1538.76	296
1547.41	312
1556.03	322
1564.65	312
1573.26	356
1581.86	474
1590.45	806
1599.02	1352
1607.59	1264
1616.14	772
1624.69	424
1633.22	330
1641.75	280
1650.26	278
1658.76	268
1667.26	254
1675.74	264
1684.21	258
1692.67	272
1701.12	260
1709.56	254
1717.99	246
1726.41	244
1734.82	240
1743.22	246
1751.61	262
1759.99	252
1768.36	242
1776.71	236
1785.06	238
1793.4	216
1801.73	226
1810.04	224
1818.35	236
1826.65	242
1834.94	226
1843.21	234
1851.48	244
1859.74	250
1867.98	240
1876.22	238
1884.45	246
1892.67	220
1900.87	226
1909.07	260
1917.26	234
1925.43	230
1933.6	236
1941.76	220
1949.91	240
1958.05	246
1966.17	250
1974.29	236
1982.4	246
1990.5	216
1998.59	236
2006.67	238
2014.74	234
2022.8	236
2030.85	232
2038.89	220
2046.92	232
2054.94	224
2062.95	234
2070.96	248
2078.95	222
2086.93	234
2094.91	252
2102.87	250
2110.83	228
2118.77	234
2126.71	244
2134.63	224
2142.55	248
2150.46	226
2158.35	232
2166.24	244
2174.12	222
2181.99	240
2189.85	220
2197.7	220
2205.55	222
2213.38	232
2221.2	234
2229.02	232
2236.82	238
2244.62	234
2252.4	222
2260.18	244
2267.95	232
2275.71	226
2283.46	232
2291.2	232
2298.93	232
2306.65	238
2314.37	238
2322.07	234
2329.77	242
2337.45	244
2345.13	264
2352.8	240
2360.46	238
2368.11	230
2375.75	224
2383.38	236
2391.01	234
2398.62	246
2406.23	246
2413.82	236
2421.41	216
2428.99	220
2436.56	224
2444.12	224
2449.79	216