File: Jesse_Dataset_v2/Pure Raman/Polypropylene oxide/633nm/ps-ppo-7jan25-0,0000-map2_Y05_X05.txt
182.393	702
192.79	578
203.174	456
213.542	458
223.897	568
234.238	1260
244.566	842
254.878	462
265.178	306
275.463	268
285.734	358
295.992	630
306.236	458
316.467	352
326.684	332
336.887	386
347.075	338
357.251	332
367.413	300
377.562	312
387.697	236
397.819	192
407.926	260
418.02	326
428.101	208
438.169	166
448.223	168
458.264	168
468.291	204
478.306	404
488.307	434
498.294	214
508.269	242
518.23	276
528.177	382
538.113	744
548.034	420
557.942	486
567.838	2676
577.72	1568
587.589	592
597.446	468
607.289	212
617.119	208
626.936	244
636.741	310
646.533	212
656.313	186
666.078	162
675.831	152
685.571	156
695.299	152
705.014	164
714.716	220
724.406	182
734.082	184
743.746	244
753.398	256
763.037	164
772.664	176
782.278	200
791.879	190
801.467	182
811.044	192
820.608	210
830.16	788
839.699	382
849.226	244
858.741	240
868.243	200
877.731	160
887.209	160
896.674	162
906.128	150
915.569	168
924.997	178
934.414	186
943.818	236
953.211	518
962.59	852
971.958	430
981.314	228
990.659	194
999.99	192
1009.31	194
1018.62	214
1027.91	260
1037.2	258
1046.47	216
1055.73	200
1064.98	194
1074.22	182
1083.44	184
1092.65	178
1101.86	222
1111.05	836
1120.22	364
1129.39	228
1138.54	238
1147.69	196
1156.82	232
1165.94	254
1175.05	264
1184.14	554
1193.23	418
1202.3	428
1211.36	290
1220.41	226
1229.45	316
1238.48	238
1247.5	204
1256.5	220
1265.49	236
1274.48	254
1283.45	358
1292.41	474
1301.36	1528
1310.29	1310
1319.22	538
1328.13	438
1337.04	326
1345.93	358
1354.81	326
1363.68	292
1372.54	498
1381.38	986
1390.22	380
1399.05	258
1407.86	270
1416.66	304
1425.46	384
1434.24	422
1443.01	488
1451.77	388
1460.52	362
1469.25	352
1477.98	316
1486.7	298
1495.4	284
1504.1	264
1512.78	252
1521.45	272
1530.11	252
1538.76	268
1547.41	244
1556.03	286
1564.65	278
1573.26	324
1581.86	436
1590.45	742
1599.02	1324
1607.59	1326
1616.14	738
1624.69	372
1633.22	282
1641.75	242
1650.26	240
1658.76	232
1667.26	222
1675.74	230
1684.21	218
1692.67	216
1701.12	228
1709.56	222
1717.99	222
1726.41	224
1734.82	210
1743.22	188
1751.61	202
1759.99	210
1768.36	198
1776.71	192
1785.06	192
1793.4	208
1801.73	192
1810.04	206
1818.35	208
1826.65	194
1834.94	178
1843.21	198
1851.48	202
1859.74	200
1867.98	192
1876.22	186
1884.45	186
1892.67	214
1900.87	192
1909.07	194
1917.26	196
1925.43	192
1933.6	190
1941.76	210
1949.91	204
1958.05	192
1966.17	194
1974.29	192
1982.4	190
1990.5	204
1998.59	208
2006.67	180
2014.74	214
2022.8	206
2030.85	200
2038.89	210
2046.92	204
2054.94	186
2062.95	178
2070.96	200
2078.95	188
2086.93	214
2094.91	198
2102.87	196
2110.83	196
2118.77	202
2126.71	200
2134.63	202
2142.55	206
2150.46	188
2158.35	202
2166.24	206
2174.12	200
2181.99	212
2189.85	212
2197.7	194
2205.55	182
2213.38	192
2221.2	188
2229.02	202
2236.82	196
2244.62	192
2252.4	202
2260.18	196
2267.95	196
2275.71	182
2283.46	202
2291.2	188
2298.93	222
2306.65	214
2314.37	214
2322.07	198
2329.77	204
2337.45	214
2345.13	196
2352.8	180
2360.46	206
2368.11	198
2375.75	190
2383.38	222
2391.01	210
2398.62	212
2406.23	214
2413.82	210
2421.41	202
2428.99	202
2436.56	204
2444.12	202
2449.79	192