File: Jesse_Dataset_v2/Pure Raman/Polypropylene oxide/633nm/ps-ppo-7jan25-0,0000-map2_Y00_X03.txt
182.393	770
192.79	638
203.174	560
213.542	494
223.897	630
234.238	1316
244.566	924
254.878	510
265.178	348
275.463	310
285.734	432
295.992	690
306.236	476
316.467	396
326.684	424
336.887	454
347.075	360
357.251	384
367.413	348
377.562	356
387.697	268
397.819	272
407.926	332
418.02	402
428.101	258
438.169	212
448.223	200
458.264	214
468.291	250
478.306	418
488.307	510
498.294	264
508.269	302
518.23	362
528.177	436
538.113	822
548.034	484
557.942	524
567.838	2842
577.72	1608
587.589	654
597.446	494
607.289	260
617.119	244
626.936	308
636.741	342
646.533	290
656.313	264
666.078	210
675.831	194
685.571	210
695.299	196
705.014	220
714.716	274
724.406	240
734.082	240
743.746	306
753.398	360
763.037	228
772.664	234
782.278	264
791.879	218
801.467	232
811.044	238
820.608	268
830.16	880
839.699	470
849.226	322
858.741	276
868.243	236
877.731	228
887.209	232
896.674	216
906.128	208
915.569	224
924.997	216
934.414	236
943.818	274
953.211	594
962.59	956
971.958	492
981.314	278
990.659	272
999.99	248
1009.31	230
1018.62	262
1027.91	298
1037.2	326
1046.47	270
1055.73	258
1064.98	240
1074.22	242
1083.44	234
1092.65	262
1101.86	282
1111.05	890
1120.22	418
1129.39	308
1138.54	282
1147.69	286
1156.82	274
1165.94	318
1175.05	320
1184.14	644
1193.23	484
1202.3	522
1211.36	328
1220.41	282
1229.45	398
1238.48	286
1247.5	274
1256.5	266
1265.49	280
1274.48	334
1283.45	400
1292.41	568
1301.36	1664
1310.29	1396
1319.22	594
1328.13	500
1337.04	398
1345.93	404
1354.81	374
1363.68	354
1372.54	588
1381.38	1098
1390.22	444
1399.05	322
1407.86	304
1416.66	368
1425.46	470
1434.24	530
1443.01	540
1451.77	434
1460.52	448
1469.25	416
1477.98	410
1486.7	346
1495.4	314
1504.1	324
1512.78	308
1521.45	312
1530.11	302
1538.76	304
1547.41	348
1556.03	346
1564.65	340
1573.26	380
1581.86	516
1590.45	832
1599.02	1408
1607.59	1290
1616.14	776
1624.69	468
1633.22	326
1641.75	310
1650.26	284
1658.76	302
1667.26	254
1675.74	282
1684.21	262
1692.67	306
1701.12	300
1709.56	276
1717.99	266
1726.41	258
1734.82	256
1743.22	244
1751.61	254
1759.99	256
1768.36	260
1776.71	262
1785.06	246
1793.4	272
1801.73	248
1810.04	258
1818.35	262
1826.65	244
1834.94	242
1843.21	262
1851.48	270
1859.74	262
1867.98	242
1876.22	250
1884.45	254
1892.67	252
1900.87	250
1909.07	256
1917.26	248
1925.43	262
1933.6	230
1941.76	244
1949.91	242
1958.05	246
1966.17	244
1974.29	232
1982.4	232
1990.5	250
1998.59	248
2006.67	234
2014.74	250
2022.8	234
2030.85	254
2038.89	254
2046.92	256
2054.94	248
2062.95	234
2070.96	246
2078.95	232
2086.93	240
2094.91	242
2102.87	238
2110.83	238
2118.77	238
2126.71	248
2134.63	242
2142.55	256
2150.46	256
2158.35	242
2166.24	246
2174.12	250
2181.99	240
2189.85	250
2197.7	244
2205.55	242
2213.38	234
2221.2	236
2229.02	238
2236.82	256
2244.62	248
2252.4	240
2260.18	244
2267.95	234
2275.71	240
2283.46	232
2291.2	244
2298.93	254
2306.65	236
2314.37	260
2322.07	244
2329.77	248
2337.45	248
2345.13	246
2352.8	230
2360.46	244
2368.11	232
2375.75	246
2383.38	232
2391.01	266
2398.62	256
2406.23	254
2413.82	244
2421.41	248
2428.99	226
2436.56	228
2444.12	234
2449.79	238