File: Jesse_Dataset_v2/Pure Raman/Polypropylene oxide/633nm/ps-ppo-7jan25-0,0000-map2_Y02_X06.txt
182.393	714
192.79	576
203.174	494
213.542	464
223.897	610
234.238	1288
244.566	894
254.878	498
265.178	316
275.463	274
285.734	384
295.992	608
306.236	468
316.467	352
326.684	384
336.887	414
347.075	358
357.251	366
367.413	340
377.562	320
387.697	250
397.819	242
407.926	274
418.02	350
428.101	246
438.169	170
448.223	176
458.264	194
468.291	230
478.306	396
488.307	466
498.294	218
508.269	262
518.23	312
528.177	398
538.113	806
548.034	470
557.942	508
567.838	2714
577.72	1572
587.589	618
597.446	454
607.289	250
617.119	236
626.936	276
636.741	336
646.533	260
656.313	198
666.078	188
675.831	182
685.571	174
695.299	176
705.014	180
714.716	256
724.406	220
734.082	222
743.746	290
753.398	322
763.037	198
772.664	204
782.278	222
791.879	194
801.467	208
811.044	210
820.608	232
830.16	852
839.699	404
849.226	280
858.741	244
868.243	200
877.731	204
887.209	182
896.674	184
906.128	192
915.569	176
924.997	196
934.414	192
943.818	280
953.211	542
962.59	920
971.958	434
981.314	264
990.659	240
999.99	210
1009.31	198
1018.62	228
1027.91	258
1037.2	296
1046.47	224
1055.73	212
1064.98	220
1074.22	200
1083.44	216
1092.65	204
1101.86	246
1111.05	836
1120.22	368
1129.39	280
1138.54	270
1147.69	228
1156.82	244
1165.94	288
1175.05	272
1184.14	566
1193.23	436
1202.3	500
1211.36	304
1220.41	244
1229.45	344
1238.48	246
1247.5	238
1256.5	246
1265.49	260
1274.48	274
1283.45	378
1292.41	510
1301.36	1552
1310.29	1292
1319.22	540
1328.13	462
1337.04	358
1345.93	352
1354.81	390
1363.68	316
1372.54	534
1381.38	1036
1390.22	416
1399.05	272
1407.86	308
1416.66	334
1425.46	414
1434.24	490
1443.01	534
1451.77	418
1460.52	404
1469.25	374
1477.98	348
1486.7	336
1495.4	316
1504.1	278
1512.78	272
1521.45	280
1530.11	274
1538.76	282
1547.41	282
1556.03	284
1564.65	302
1573.26	340
1581.86	436
1590.45	792
1599.02	1372
1607.59	1314
1616.14	742
1624.69	432
1633.22	302
1641.75	262
1650.26	244
1658.76	242
1667.26	258
1675.74	250
1684.21	256
1692.67	256
1701.12	244
1709.56	246
1717.99	246
1726.41	234
1734.82	216
1743.22	238
1751.61	206
1759.99	230
1768.36	240
1776.71	202
1785.06	210
1793.4	228
1801.73	220
1810.04	226
1818.35	214
1826.65	226
1834.94	194
1843.21	212
1851.48	212
1859.74	208
1867.98	224
1876.22	214
1884.45	206
1892.67	216
1900.87	218
1909.07	218
1917.26	236
1925.43	224
1933.6	196
1941.76	204
1949.91	208
1958.05	220
1966.17	220
1974.29	204
1982.4	208
1990.5	232
1998.59	202
2006.67	214
2014.74	206
2022.8	198
2030.85	226
2038.89	222
2046.92	226
2054.94	214
2062.95	206
2070.96	212
2078.95	218
2086.93	214
2094.91	218
2102.87	218
2110.83	212
2118.77	204
2126.71	210
2134.63	212
2142.55	208
2150.46	216
2158.35	210
2166.24	208
2174.12	220
2181.99	204
2189.85	218
2197.7	192
2205.55	198
2213.38	210
2221.2	216
2229.02	200
2236.82	210
2244.62	222
2252.4	210
2260.18	200
2267.95	196
2275.71	204
2283.46	222
2291.2	214
2298.93	216
2306.65	230
2314.37	232
2322.07	220
2329.77	232
2337.45	224
2345.13	224
2352.8	218
2360.46	218
2368.11	222
2375.75	228
2383.38	234
2391.01	218
2398.62	230
2406.23	222
2413.82	214
2421.41	210
2428.99	218
2436.56	202
2444.12	214
2449.79	220