File: Jesse_Dataset_v2/Pure Raman/Polypropylene oxide/633nm/ps-ppo-7jan25-0,0000-map2_Y07_X09.txt
182.393	678
192.79	572
203.174	486
213.542	446
223.897	564
234.238	1212
244.566	894
254.878	462
265.178	288
275.463	274
285.734	386
295.992	620
306.236	466
316.467	360
326.684	362
336.887	392
347.075	344
357.251	342
367.413	324
377.562	336
387.697	220
397.819	228
407.926	276
418.02	342
428.101	226
438.169	198
448.223	164
458.264	180
468.291	246
478.306	402
488.307	462
498.294	244
508.269	254
518.23	304
528.177	376
538.113	788
548.034	438
557.942	506
567.838	2608
577.72	1494
587.589	606
597.446	440
607.289	242
617.119	218
626.936	286
636.741	310
646.533	240
656.313	208
666.078	178
675.831	174
685.571	170
695.299	164
705.014	182
714.716	254
724.406	214
734.082	208
743.746	258
753.398	288
763.037	210
772.664	198
782.278	218
791.879	196
801.467	190
811.044	204
820.608	230
830.16	788
839.699	416
849.226	260
858.741	244
868.243	206
877.731	204
887.209	192
896.674	160
906.128	180
915.569	176
924.997	184
934.414	192
943.818	268
953.211	516
962.59	882
971.958	416
981.314	256
990.659	240
999.99	192
1009.31	192
1018.62	212
1027.91	248
1037.2	276
1046.47	244
1055.73	202
1064.98	218
1074.22	198
1083.44	200
1092.65	210
1101.86	240
1111.05	788
1120.22	368
1129.39	262
1138.54	246
1147.69	230
1156.82	230
1165.94	258
1175.05	266
1184.14	584
1193.23	444
1202.3	482
1211.36	302
1220.41	242
1229.45	376
1238.48	246
1247.5	216
1256.5	228
1265.49	278
1274.48	276
1283.45	342
1292.41	484
1301.36	1522
1310.29	1328
1319.22	504
1328.13	458
1337.04	338
1345.93	376
1354.81	342
1363.68	304
1372.54	492
1381.38	998
1390.22	380
1399.05	258
1407.86	274
1416.66	308
1425.46	404
1434.24	452
1443.01	502
1451.77	402
1460.52	372
1469.25	388
1477.98	372
1486.7	306
1495.4	292
1504.1	278
1512.78	266
1521.45	276
1530.11	278
1538.76	304
1547.41	282
1556.03	292
1564.65	308
1573.26	354
1581.86	448
1590.45	760
1599.02	1318
1607.59	1306
1616.14	754
1624.69	396
1633.22	296
1641.75	264
1650.26	256
1658.76	244
1667.26	238
1675.74	246
1684.21	236
1692.67	256
1701.12	240
1709.56	266
1717.99	238
1726.41	218
1734.82	222
1743.22	224
1751.61	220
1759.99	214
1768.36	214
1776.71	220
1785.06	234
1793.4	212
1801.73	236
1810.04	216
1818.35	216
1826.65	222
1834.94	218
1843.21	228
1851.48	212
1859.74	222
1867.98	212
1876.22	224
1884.45	208
1892.67	226
1900.87	220
1909.07	214
1917.26	222
1925.43	214
1933.6	208
1941.76	228
1949.91	206
1958.05	210
1966.17	216
1974.29	218
1982.4	200
1990.5	214
1998.59	208
2006.67	222
2014.74	206
2022.8	212
2030.85	230
2038.89	214
2046.92	230
2054.94	212
2062.95	204
2070.96	200
2078.95	204
2086.93	224
2094.91	216
2102.87	218
2110.83	220
2118.77	202
2126.71	204
2134.63	222
2142.55	230
2150.46	230
2158.35	204
2166.24	224
2174.12	200
2181.99	232
2189.85	206
2197.7	220
2205.55	208
2213.38	224
2221.2	210
2229.02	198
2236.82	206
2244.62	220
2252.4	218
2260.18	220
2267.95	214
2275.71	214
2283.46	230
2291.2	216
2298.93	212
2306.65	214
2314.37	212
2322.07	246
2329.77	222
2337.45	220
2345.13	222
2352.8	216
2360.46	214
2368.11	218
2375.75	230
2383.38	224
2391.01	222
2398.62	232
2406.23	210
2413.82	212
2421.41	230
2428.99	206
2436.56	210
2444.12	208
2449.79	232