File: Jesse_Dataset_v2/Pure Raman/Polypropylene oxide/633nm/ps-ppo-7jan25-0,0000-map2_Y03_X02.txt
182.393	716
192.79	650
203.174	510
213.542	474
223.897	608
234.238	1298
244.566	900
254.878	470
265.178	312
275.463	278
285.734	396
295.992	608
306.236	474
316.467	384
326.684	372
336.887	398
347.075	362
357.251	360
367.413	318
377.562	312
387.697	270
397.819	236
407.926	286
418.02	334
428.101	234
438.169	182
448.223	174
458.264	184
468.291	254
478.306	402
488.307	454
498.294	238
508.269	258
518.23	318
528.177	392
538.113	792
548.034	454
557.942	536
567.838	2760
577.72	1600
587.589	596
597.446	484
607.289	234
617.119	218
626.936	266
636.741	316
646.533	262
656.313	190
666.078	182
675.831	164
685.571	184
695.299	160
705.014	198
714.716	262
724.406	204
734.082	214
743.746	304
753.398	300
763.037	226
772.664	208
782.278	218
791.879	192
801.467	196
811.044	214
820.608	240
830.16	846
839.699	386
849.226	276
858.741	244
868.243	196
877.731	192
887.209	184
896.674	170
906.128	168
915.569	188
924.997	176
934.414	220
943.818	254
953.211	558
962.59	908
971.958	466
981.314	254
990.659	226
999.99	192
1009.31	198
1018.62	242
1027.91	266
1037.2	320
1046.47	234
1055.73	212
1064.98	200
1074.22	206
1083.44	204
1092.65	206
1101.86	246
1111.05	816
1120.22	396
1129.39	266
1138.54	252
1147.69	236
1156.82	220
1165.94	270
1175.05	304
1184.14	566
1193.23	470
1202.3	490
1211.36	318
1220.41	264
1229.45	356
1238.48	258
1247.5	222
1256.5	236
1265.49	242
1274.48	262
1283.45	354
1292.41	532
1301.36	1642
1310.29	1280
1319.22	574
1328.13	478
1337.04	368
1345.93	376
1354.81	376
1363.68	332
1372.54	572
1381.38	1078
1390.22	372
1399.05	288
1407.86	288
1416.66	314
1425.46	420
1434.24	508
1443.01	508
1451.77	426
1460.52	396
1469.25	384
1477.98	378
1486.7	302
1495.4	286
1504.1	276
1512.78	276
1521.45	296
1530.11	268
1538.76	276
1547.41	306
1556.03	300
1564.65	296
1573.26	344
1581.86	468
1590.45	744
1599.02	1386
1607.59	1284
1616.14	742
1624.69	398
1633.22	312
1641.75	258
1650.26	254
1658.76	240
1667.26	236
1675.74	224
1684.21	230
1692.67	250
1701.12	258
1709.56	236
1717.99	230
1726.41	210
1734.82	218
1743.22	222
1751.61	216
1759.99	218
1768.36	238
1776.71	214
1785.06	232
1793.4	224
1801.73	236
1810.04	216
1818.35	222
1826.65	226
1834.94	208
1843.21	216
1851.48	218
1859.74	230
1867.98	214
1876.22	218
1884.45	214
1892.67	230
1900.87	214
1909.07	224
1917.26	212
1925.43	212
1933.6	240
1941.76	216
1949.91	216
1958.05	220
1966.17	224
1974.29	234
1982.4	222
1990.5	222
1998.59	212
2006.67	218
2014.74	224
2022.8	202
2030.85	216
2038.89	194
2046.92	212
2054.94	210
2062.95	232
2070.96	204
2078.95	208
2086.93	212
2094.91	226
2102.87	198
2110.83	204
2118.77	226
2126.71	212
2134.63	224
2142.55	222
2150.46	202
2158.35	224
2166.24	218
2174.12	214
2181.99	216
2189.85	206
2197.7	206
2205.55	208
2213.38	212
2221.2	220
2229.02	220
2236.82	204
2244.62	216
2252.4	222
2260.18	212
2267.95	200
2275.71	228
2283.46	220
2291.2	208
2298.93	216
2306.65	218
2314.37	216
2322.07	216
2329.77	218
2337.45	232
2345.13	216
2352.8	212
2360.46	222
2368.11	220
2375.75	224
2383.38	210
2391.01	212
2398.62	224
2406.23	232
2413.82	216
2421.41	210
2428.99	204
2436.56	208
2444.12	214
2449.79	222