File: Jesse_Dataset_v2/Pure Raman/Polypropylene oxide/633nm/ps-ppo-7jan25-0,0000-map2_Y09_X00.txt
182.393	712
192.79	570
203.174	528
213.542	460
223.897	608
234.238	1274
244.566	876
254.878	478
265.178	314
275.463	292
285.734	364
295.992	630
306.236	462
316.467	376
326.684	398
336.887	410
347.075	362
357.251	360
367.413	342
377.562	310
387.697	248
397.819	272
407.926	282
418.02	332
428.101	248
438.169	192
448.223	178
458.264	212
468.291	250
478.306	416
488.307	478
498.294	256
508.269	276
518.23	330
528.177	400
538.113	772
548.034	472
557.942	506
567.838	2496
577.72	1568
587.589	598
597.446	478
607.289	248
617.119	254
626.936	288
636.741	344
646.533	276
656.313	240
666.078	212
675.831	190
685.571	186
695.299	202
705.014	204
714.716	276
724.406	228
734.082	244
743.746	292
753.398	304
763.037	232
772.664	212
782.278	246
791.879	226
801.467	222
811.044	248
820.608	244
830.16	772
839.699	420
849.226	276
858.741	260
868.243	230
877.731	190
887.209	196
896.674	196
906.128	202
915.569	192
924.997	222
934.414	230
943.818	280
953.211	540
962.59	876
971.958	452
981.314	288
990.659	246
999.99	224
1009.31	208
1018.62	246
1027.91	268
1037.2	304
1046.47	252
1055.73	256
1064.98	234
1074.22	228
1083.44	230
1092.65	240
1101.86	272
1111.05	818
1120.22	410
1129.39	294
1138.54	282
1147.69	260
1156.82	264
1165.94	284
1175.05	302
1184.14	576
1193.23	482
1202.3	498
1211.36	314
1220.41	286
1229.45	398
1238.48	258
1247.5	248
1256.5	242
1265.49	290
1274.48	290
1283.45	376
1292.41	510
1301.36	1478
1310.29	1340
1319.22	568
1328.13	484
1337.04	372
1345.93	386
1354.81	392
1363.68	334
1372.54	546
1381.38	1084
1390.22	408
1399.05	312
1407.86	306
1416.66	330
1425.46	456
1434.24	468
1443.01	526
1451.77	442
1460.52	396
1469.25	402
1477.98	376
1486.7	312
1495.4	298
1504.1	318
1512.78	304
1521.45	268
1530.11	298
1538.76	280
1547.41	318
1556.03	320
1564.65	320
1573.26	366
1581.86	474
1590.45	784
1599.02	1352
1607.59	1290
1616.14	744
1624.69	418
1633.22	344
1641.75	300
1650.26	268
1658.76	258
1667.26	264
1675.74	260
1684.21	236
1692.67	284
1701.12	282
1709.56	262
1717.99	260
1726.41	258
1734.82	246
1743.22	248
1751.61	250
1759.99	242
1768.36	244
1776.71	244
1785.06	230
1793.4	226
1801.73	248
1810.04	238
1818.35	258
1826.65	246
1834.94	242
1843.21	240
1851.48	240
1859.74	232
1867.98	242
1876.22	226
1884.45	244
1892.67	224
1900.87	238
1909.07	226
1917.26	258
1925.43	224
1933.6	240
1941.76	232
1949.91	238
1958.05	230
1966.17	228
1974.29	230
1982.4	246
1990.5	234
1998.59	236
2006.67	228
2014.74	244
2022.8	238
2030.85	226
2038.89	240
2046.92	244
2054.94	238
2062.95	250
2070.96	230
2078.95	222
2086.93	250
2094.91	244
2102.87	256
2110.83	240
2118.77	236
2126.71	224
2134.63	240
2142.55	232
2150.46	238
2158.35	220
2166.24	222
2174.12	242
2181.99	224
2189.85	222
2197.7	226
2205.55	250
2213.38	246
2221.2	220
2229.02	214
2236.82	246
2244.62	220
2252.4	242
2260.18	218
2267.95	226
2275.71	232
2283.46	244
2291.2	230
2298.93	230
2306.65	242
2314.37	262
2322.07	244
2329.77	240
2337.45	242
2345.13	236
2352.8	220
2360.46	210
2368.11	240
2375.75	228
2383.38	240
2391.01	236
2398.62	248
2406.23	270
2413.82	246
2421.41	244
2428.99	226
2436.56	228
2444.12	220
2449.79	230