File: Jesse_Dataset_v2/Pure Raman/Polypropylene oxide/633nm/ps-ppo-7jan25-0,0000-map2_Y05_X08.txt
182.393	664
192.79	600
203.174	516
213.542	454
223.897	600
234.238	1214
244.566	850
254.878	448
265.178	312
275.463	274
285.734	372
295.992	630
306.236	456
316.467	366
326.684	370
336.887	424
347.075	352
357.251	360
367.413	328
377.562	318
387.697	236
397.819	234
407.926	246
418.02	344
428.101	222
438.169	194
448.223	156
458.264	156
468.291	234
478.306	400
488.307	430
498.294	224
508.269	232
518.23	298
528.177	384
538.113	776
548.034	432
557.942	500
567.838	2636
577.72	1500
587.589	584
597.446	448
607.289	232
617.119	226
626.936	252
636.741	318
646.533	254
656.313	188
666.078	166
675.831	148
685.571	158
695.299	172
705.014	174
714.716	232
724.406	184
734.082	196
743.746	260
753.398	300
763.037	190
772.664	192
782.278	210
791.879	178
801.467	194
811.044	202
820.608	222
830.16	780
839.699	372
849.226	262
858.741	234
868.243	186
877.731	180
887.209	180
896.674	174
906.128	172
915.569	172
924.997	168
934.414	212
943.818	232
953.211	510
962.59	850
971.958	426
981.314	234
990.659	226
999.99	192
1009.31	194
1018.62	212
1027.91	278
1037.2	276
1046.47	228
1055.73	196
1064.98	192
1074.22	180
1083.44	198
1092.65	204
1101.86	238
1111.05	816
1120.22	376
1129.39	244
1138.54	246
1147.69	198
1156.82	244
1165.94	266
1175.05	278
1184.14	556
1193.23	458
1202.3	454
1211.36	306
1220.41	250
1229.45	318
1238.48	242
1247.5	216
1256.5	218
1265.49	238
1274.48	260
1283.45	346
1292.41	486
1301.36	1516
1310.29	1354
1319.22	554
1328.13	444
1337.04	352
1345.93	362
1354.81	342
1363.68	312
1372.54	550
1381.38	1010
1390.22	372
1399.05	248
1407.86	270
1416.66	304
1425.46	378
1434.24	470
1443.01	502
1451.77	408
1460.52	396
1469.25	352
1477.98	342
1486.7	318
1495.4	290
1504.1	266
1512.78	250
1521.45	272
1530.11	270
1538.76	262
1547.41	282
1556.03	286
1564.65	308
1573.26	348
1581.86	462
1590.45	770
1599.02	1336
1607.59	1282
1616.14	742
1624.69	402
1633.22	300
1641.75	266
1650.26	244
1658.76	228
1667.26	228
1675.74	234
1684.21	248
1692.67	252
1701.12	228
1709.56	228
1717.99	236
1726.41	200
1734.82	202
1743.22	202
1751.61	212
1759.99	214
1768.36	224
1776.71	216
1785.06	212
1793.4	222
1801.73	206
1810.04	212
1818.35	206
1826.65	204
1834.94	212
1843.21	196
1851.48	192
1859.74	198
1867.98	200
1876.22	216
1884.45	208
1892.67	212
1900.87	214
1909.07	212
1917.26	206
1925.43	196
1933.6	206
1941.76	206
1949.91	206
1958.05	200
1966.17	204
1974.29	208
1982.4	192
1990.5	222
1998.59	206
2006.67	210
2014.74	212
2022.8	210
2030.85	198
2038.89	212
2046.92	216
2054.94	210
2062.95	210
2070.96	196
2078.95	196
2086.93	194
2094.91	192
2102.87	204
2110.83	214
2118.77	196
2126.71	202
2134.63	208
2142.55	214
2150.46	206
2158.35	192
2166.24	200
2174.12	206
2181.99	202
2189.85	206
2197.7	206
2205.55	200
2213.38	196
2221.2	212
2229.02	196
2236.82	186
2244.62	204
2252.4	200
2260.18	218
2267.95	208
2275.71	206
2283.46	210
2291.2	208
2298.93	220
2306.65	204
2314.37	212
2322.07	230
2329.77	200
2337.45	218
2345.13	222
2352.8	194
2360.46	212
2368.11	220
2375.75	222
2383.38	208
2391.01	222
2398.62	212
2406.23	224
2413.82	218
2421.41	196
2428.99	206
2436.56	190
2444.12	208
2449.79	208