File: Jesse_Dataset_v2/Pure Raman/Polypropylene oxide/633nm/ps-ppo-7jan25-0,0000-map2_Y08_X09.txt
182.393	646
192.79	588
203.174	510
213.542	442
223.897	604
234.238	1198
244.566	852
254.878	480
265.178	310
275.463	300
285.734	374
295.992	582
306.236	446
316.467	382
326.684	378
336.887	380
347.075	352
357.251	354
367.413	324
377.562	306
387.697	264
397.819	244
407.926	268
418.02	360
428.101	260
438.169	192
448.223	168
458.264	180
468.291	240
478.306	400
488.307	470
498.294	238
508.269	256
518.23	310
528.177	386
538.113	738
548.034	462
557.942	504
567.838	2518
577.72	1554
587.589	592
597.446	440
607.289	250
617.119	222
626.936	272
636.741	310
646.533	254
656.313	208
666.078	194
675.831	188
685.571	186
695.299	180
705.014	176
714.716	226
724.406	198
734.082	228
743.746	284
753.398	302
763.037	222
772.664	204
782.278	236
791.879	198
801.467	204
811.044	218
820.608	252
830.16	784
839.699	384
849.226	274
858.741	238
868.243	226
877.731	208
887.209	196
896.674	162
906.128	202
915.569	190
924.997	184
934.414	204
943.818	246
953.211	502
962.59	868
971.958	424
981.314	252
990.659	234
999.99	210
1009.31	220
1018.62	234
1027.91	256
1037.2	282
1046.47	258
1055.73	214
1064.98	204
1074.22	198
1083.44	220
1092.65	220
1101.86	250
1111.05	760
1120.22	374
1129.39	270
1138.54	240
1147.69	226
1156.82	246
1165.94	270
1175.05	274
1184.14	536
1193.23	428
1202.3	464
1211.36	304
1220.41	264
1229.45	352
1238.48	244
1247.5	222
1256.5	236
1265.49	268
1274.48	270
1283.45	372
1292.41	516
1301.36	1538
1310.29	1316
1319.22	518
1328.13	482
1337.04	340
1345.93	374
1354.81	362
1363.68	312
1372.54	520
1381.38	1024
1390.22	418
1399.05	288
1407.86	284
1416.66	306
1425.46	406
1434.24	482
1443.01	508
1451.77	414
1460.52	412
1469.25	380
1477.98	376
1486.7	330
1495.4	320
1504.1	274
1512.78	288
1521.45	280
1530.11	282
1538.76	300
1547.41	290
1556.03	278
1564.65	312
1573.26	376
1581.86	466
1590.45	778
1599.02	1376
1607.59	1260
1616.14	746
1624.69	408
1633.22	308
1641.75	284
1650.26	256
1658.76	264
1667.26	238
1675.74	244
1684.21	238
1692.67	262
1701.12	240
1709.56	262
1717.99	236
1726.41	246
1734.82	226
1743.22	224
1751.61	216
1759.99	246
1768.36	216
1776.71	232
1785.06	224
1793.4	222
1801.73	236
1810.04	242
1818.35	220
1826.65	218
1834.94	230
1843.21	212
1851.48	230
1859.74	208
1867.98	206
1876.22	206
1884.45	220
1892.67	244
1900.87	234
1909.07	214
1917.26	208
1925.43	226
1933.6	218
1941.76	206
1949.91	240
1958.05	208
1966.17	238
1974.29	226
1982.4	212
1990.5	222
1998.59	254
2006.67	220
2014.74	234
2022.8	228
2030.85	228
2038.89	220
2046.92	238
2054.94	206
2062.95	216
2070.96	212
2078.95	232
2086.93	222
2094.91	224
2102.87	218
2110.83	200
2118.77	240
2126.71	236
2134.63	214
2142.55	212
2150.46	210
2158.35	218
2166.24	228
2174.12	222
2181.99	220
2189.85	224
2197.7	224
2205.55	218
2213.38	228
2221.2	208
2229.02	218
2236.82	204
2244.62	214
2252.4	212
2260.18	218
2267.95	230
2275.71	214
2283.46	228
2291.2	222
2298.93	222
2306.65	220
2314.37	222
2322.07	236
2329.77	226
2337.45	232
2345.13	220
2352.8	206
2360.46	224
2368.11	232
2375.75	222
2383.38	208
2391.01	218
2398.62	226
2406.23	232
2413.82	246
2421.41	216
2428.99	220
2436.56	200
2444.12	220
2449.79	226