File: Jesse_Dataset_v2/Pure Raman/Polypropylene oxide/633nm/ps-ppo-7jan25-0,0000-map2_Y04_X08.txt
182.393	690
192.79	616
203.174	526
213.542	448
223.897	582
234.238	1278
244.566	864
254.878	466
265.178	282
275.463	288
285.734	388
295.992	628
306.236	466
316.467	380
326.684	372
336.887	370
347.075	350
357.251	350
367.413	310
377.562	320
387.697	258
397.819	216
407.926	268
418.02	348
428.101	234
438.169	186
448.223	176
458.264	176
468.291	228
478.306	398
488.307	410
498.294	238
508.269	262
518.23	304
528.177	386
538.113	784
548.034	462
557.942	508
567.838	2668
577.72	1566
587.589	620
597.446	450
607.289	232
617.119	196
626.936	274
636.741	330
646.533	262
656.313	194
666.078	176
675.831	162
685.571	160
695.299	168
705.014	180
714.716	238
724.406	194
734.082	204
743.746	254
753.398	298
763.037	200
772.664	182
782.278	210
791.879	174
801.467	188
811.044	202
820.608	246
830.16	794
839.699	358
849.226	250
858.741	236
868.243	196
877.731	192
887.209	180
896.674	172
906.128	174
915.569	174
924.997	174
934.414	206
943.818	240
953.211	544
962.59	888
971.958	444
981.314	240
990.659	212
999.99	196
1009.31	178
1018.62	232
1027.91	264
1037.2	266
1046.47	244
1055.73	196
1064.98	204
1074.22	178
1083.44	204
1092.65	186
1101.86	258
1111.05	802
1120.22	366
1129.39	242
1138.54	242
1147.69	236
1156.82	236
1165.94	268
1175.05	270
1184.14	560
1193.23	456
1202.3	464
1211.36	280
1220.41	244
1229.45	318
1238.48	240
1247.5	218
1256.5	230
1265.49	246
1274.48	264
1283.45	356
1292.41	538
1301.36	1590
1310.29	1286
1319.22	548
1328.13	446
1337.04	348
1345.93	360
1354.81	358
1363.68	308
1372.54	530
1381.38	1000
1390.22	418
1399.05	258
1407.86	276
1416.66	304
1425.46	404
1434.24	444
1443.01	496
1451.77	398
1460.52	394
1469.25	364
1477.98	354
1486.7	332
1495.4	302
1504.1	260
1512.78	294
1521.45	268
1530.11	302
1538.76	262
1547.41	270
1556.03	300
1564.65	286
1573.26	344
1581.86	444
1590.45	764
1599.02	1366
1607.59	1228
1616.14	764
1624.69	360
1633.22	300
1641.75	266
1650.26	238
1658.76	236
1667.26	220
1675.74	218
1684.21	234
1692.67	240
1701.12	228
1709.56	220
1717.99	214
1726.41	222
1734.82	216
1743.22	212
1751.61	214
1759.99	208
1768.36	198
1776.71	194
1785.06	206
1793.4	204
1801.73	212
1810.04	214
1818.35	212
1826.65	206
1834.94	210
1843.21	210
1851.48	190
1859.74	202
1867.98	208
1876.22	202
1884.45	210
1892.67	216
1900.87	210
1909.07	212
1917.26	210
1925.43	206
1933.6	196
1941.76	216
1949.91	210
1958.05	212
1966.17	216
1974.29	216
1982.4	226
1990.5	212
1998.59	196
2006.67	212
2014.74	212
2022.8	218
2030.85	224
2038.89	200
2046.92	198
2054.94	220
2062.95	202
2070.96	192
2078.95	210
2086.93	208
2094.91	198
2102.87	206
2110.83	214
2118.77	210
2126.71	208
2134.63	198
2142.55	210
2150.46	188
2158.35	206
2166.24	212
2174.12	198
2181.99	204
2189.85	204
2197.7	202
2205.55	204
2213.38	198
2221.2	196
2229.02	190
2236.82	202
2244.62	204
2252.4	220
2260.18	214
2267.95	204
2275.71	218
2283.46	242
2291.2	192
2298.93	192
2306.65	210
2314.37	206
2322.07	210
2329.77	190
2337.45	190
2345.13	226
2352.8	198
2360.46	206
2368.11	208
2375.75	214
2383.38	220
2391.01	210
2398.62	220
2406.23	208
2413.82	216
2421.41	216
2428.99	194
2436.56	220
2444.12	212
2449.79	218