File: Jesse_Dataset_v2/Pure Raman/Polypropylene oxide/633nm/ps-ppo-7jan25-0,0000-map2_Y00_X07.txt
182.393	744
192.79	666
203.174	542
213.542	492
223.897	636
234.238	1288
244.566	950
254.878	530
265.178	370
275.463	318
285.734	416
295.992	668
306.236	514
316.467	426
326.684	410
336.887	438
347.075	388
357.251	390
367.413	386
377.562	350
387.697	268
397.819	280
407.926	310
418.02	384
428.101	258
438.169	218
448.223	204
458.264	204
468.291	274
478.306	438
488.307	502
498.294	280
508.269	308
518.23	350
528.177	424
538.113	852
548.034	508
557.942	564
567.838	2830
577.72	1664
587.589	654
597.446	500
607.289	314
617.119	264
626.936	322
636.741	356
646.533	272
656.313	232
666.078	218
675.831	190
685.571	206
695.299	198
705.014	226
714.716	300
724.406	248
734.082	256
743.746	336
753.398	338
763.037	238
772.664	240
782.278	278
791.879	228
801.467	234
811.044	244
820.608	272
830.16	816
839.699	444
849.226	316
858.741	260
868.243	250
877.731	220
887.209	216
896.674	214
906.128	230
915.569	224
924.997	212
934.414	218
943.818	288
953.211	612
962.59	910
971.958	512
981.314	300
990.659	266
999.99	250
1009.31	244
1018.62	268
1027.91	314
1037.2	344
1046.47	288
1055.73	258
1064.98	236
1074.22	238
1083.44	250
1092.65	258
1101.86	288
1111.05	880
1120.22	440
1129.39	306
1138.54	304
1147.69	276
1156.82	304
1165.94	310
1175.05	326
1184.14	582
1193.23	510
1202.3	548
1211.36	346
1220.41	298
1229.45	394
1238.48	316
1247.5	238
1256.5	282
1265.49	280
1274.48	316
1283.45	416
1292.41	572
1301.36	1672
1310.29	1348
1319.22	594
1328.13	488
1337.04	384
1345.93	432
1354.81	412
1363.68	338
1372.54	564
1381.38	1106
1390.22	436
1399.05	316
1407.86	318
1416.66	396
1425.46	460
1434.24	530
1443.01	556
1451.77	442
1460.52	422
1469.25	406
1477.98	390
1486.7	336
1495.4	326
1504.1	346
1512.78	314
1521.45	314
1530.11	316
1538.76	328
1547.41	326
1556.03	332
1564.65	358
1573.26	392
1581.86	508
1590.45	800
1599.02	1494
1607.59	1358
1616.14	808
1624.69	452
1633.22	364
1641.75	296
1650.26	278
1658.76	296
1667.26	290
1675.74	290
1684.21	286
1692.67	298
1701.12	298
1709.56	274
1717.99	274
1726.41	262
1734.82	268
1743.22	260
1751.61	252
1759.99	264
1768.36	276
1776.71	246
1785.06	262
1793.4	242
1801.73	246
1810.04	240
1818.35	280
1826.65	262
1834.94	252
1843.21	240
1851.48	278
1859.74	276
1867.98	250
1876.22	246
1884.45	258
1892.67	254
1900.87	256
1909.07	254
1917.26	262
1925.43	266
1933.6	256
1941.76	262
1949.91	244
1958.05	254
1966.17	238
1974.29	240
1982.4	258
1990.5	258
1998.59	246
2006.67	254
2014.74	270
2022.8	268
2030.85	270
2038.89	254
2046.92	236
2054.94	246
2062.95	264
2070.96	280
2078.95	252
2086.93	238
2094.91	254
2102.87	252
2110.83	236
2118.77	242
2126.71	250
2134.63	246
2142.55	254
2150.46	256
2158.35	258
2166.24	264
2174.12	248
2181.99	244
2189.85	260
2197.7	252
2205.55	234
2213.38	246
2221.2	246
2229.02	256
2236.82	264
2244.62	238
2252.4	270
2260.18	254
2267.95	260
2275.71	248
2283.46	244
2291.2	252
2298.93	244
2306.65	266
2314.37	254
2322.07	254
2329.77	240
2337.45	244
2345.13	250
2352.8	250
2360.46	214
2368.11	246
2375.75	234
2383.38	262
2391.01	254
2398.62	234
2406.23	262
2413.82	242
2421.41	232
2428.99	256
2436.56	246
2444.12	240
2449.79	248