File: Jesse_Dataset_v2/Pure Raman/Polypropylene oxide/633nm/ps-ppo-7jan25-0,0000-map2_Y03_X03.txt
182.393	676
192.79	612
203.174	494
213.542	460
223.897	616
234.238	1298
244.566	874
254.878	472
265.178	324
275.463	284
285.734	368
295.992	616
306.236	448
316.467	348
326.684	370
336.887	380
347.075	344
357.251	356
367.413	342
377.562	326
387.697	250
397.819	234
407.926	264
418.02	364
428.101	222
438.169	180
448.223	172
458.264	184
468.291	244
478.306	400
488.307	436
498.294	226
508.269	262
518.23	310
528.177	386
538.113	764
548.034	480
557.942	542
567.838	2768
577.72	1556
587.589	610
597.446	462
607.289	236
617.119	210
626.936	290
636.741	338
646.533	238
656.313	200
666.078	180
675.831	164
685.571	168
695.299	166
705.014	176
714.716	248
724.406	222
734.082	224
743.746	284
753.398	314
763.037	204
772.664	198
782.278	198
791.879	192
801.467	198
811.044	220
820.608	222
830.16	822
839.699	380
849.226	268
858.741	240
868.243	200
877.731	200
887.209	190
896.674	172
906.128	180
915.569	178
924.997	184
934.414	182
943.818	236
953.211	530
962.59	920
971.958	458
981.314	236
990.659	232
999.99	204
1009.31	194
1018.62	214
1027.91	254
1037.2	292
1046.47	220
1055.73	202
1064.98	218
1074.22	198
1083.44	200
1092.65	216
1101.86	260
1111.05	862
1120.22	364
1129.39	262
1138.54	268
1147.69	242
1156.82	256
1165.94	258
1175.05	272
1184.14	562
1193.23	424
1202.3	454
1211.36	310
1220.41	246
1229.45	358
1238.48	254
1247.5	224
1256.5	226
1265.49	248
1274.48	258
1283.45	356
1292.41	522
1301.36	1574
1310.29	1310
1319.22	524
1328.13	480
1337.04	324
1345.93	368
1354.81	356
1363.68	306
1372.54	550
1381.38	1028
1390.22	396
1399.05	282
1407.86	294
1416.66	338
1425.46	398
1434.24	478
1443.01	480
1451.77	402
1460.52	378
1469.25	362
1477.98	362
1486.7	338
1495.4	266
1504.1	290
1512.78	272
1521.45	274
1530.11	278
1538.76	256
1547.41	290
1556.03	274
1564.65	308
1573.26	338
1581.86	470
1590.45	770
1599.02	1354
1607.59	1256
1616.14	738
1624.69	396
1633.22	302
1641.75	254
1650.26	248
1658.76	242
1667.26	250
1675.74	214
1684.21	218
1692.67	232
1701.12	236
1709.56	230
1717.99	224
1726.41	206
1734.82	202
1743.22	218
1751.61	198
1759.99	212
1768.36	218
1776.71	202
1785.06	212
1793.4	224
1801.73	212
1810.04	192
1818.35	212
1826.65	210
1834.94	212
1843.21	208
1851.48	206
1859.74	204
1867.98	216
1876.22	214
1884.45	212
1892.67	234
1900.87	234
1909.07	202
1917.26	198
1925.43	204
1933.6	218
1941.76	206
1949.91	204
1958.05	216
1966.17	204
1974.29	200
1982.4	214
1990.5	220
1998.59	218
2006.67	190
2014.74	192
2022.8	200
2030.85	204
2038.89	210
2046.92	206
2054.94	222
2062.95	214
2070.96	222
2078.95	208
2086.93	202
2094.91	226
2102.87	202
2110.83	214
2118.77	206
2126.71	202
2134.63	200
2142.55	210
2150.46	208
2158.35	196
2166.24	214
2174.12	206
2181.99	198
2189.85	212
2197.7	196
2205.55	204
2213.38	210
2221.2	220
2229.02	196
2236.82	208
2244.62	206
2252.4	204
2260.18	224
2267.95	216
2275.71	226
2283.46	192
2291.2	210
2298.93	212
2306.65	218
2314.37	224
2322.07	216
2329.77	216
2337.45	214
2345.13	200
2352.8	222
2360.46	206
2368.11	218
2375.75	222
2383.38	210
2391.01	216
2398.62	208
2406.23	222
2413.82	210
2421.41	222
2428.99	198
2436.56	198
2444.12	204
2449.79	208