File: Jesse_Dataset_v2/Pure Raman/Polypropylene oxide/633nm/ps-ppo-7jan25-0,0000-map2_Y05_X03.txt
182.393	690
192.79	580
203.174	508
213.542	440
223.897	556
234.238	1230
244.566	896
254.878	474
265.178	310
275.463	284
285.734	376
295.992	624
306.236	432
316.467	360
326.684	354
336.887	390
347.075	354
357.251	344
367.413	338
377.562	318
387.697	222
397.819	222
407.926	264
418.02	338
428.101	232
438.169	186
448.223	164
458.264	174
468.291	236
478.306	386
488.307	442
498.294	248
508.269	266
518.23	296
528.177	382
538.113	780
548.034	454
557.942	478
567.838	2638
577.72	1510
587.589	590
597.446	450
607.289	228
617.119	192
626.936	258
636.741	334
646.533	240
656.313	192
666.078	176
675.831	152
685.571	170
695.299	172
705.014	168
714.716	214
724.406	200
734.082	198
743.746	284
753.398	284
763.037	202
772.664	196
782.278	208
791.879	206
801.467	194
811.044	186
820.608	222
830.16	788
839.699	372
849.226	272
858.741	214
868.243	206
877.731	196
887.209	176
896.674	170
906.128	168
915.569	180
924.997	176
934.414	200
943.818	254
953.211	550
962.59	860
971.958	454
981.314	242
990.659	234
999.99	202
1009.31	208
1018.62	206
1027.91	260
1037.2	284
1046.47	240
1055.73	204
1064.98	202
1074.22	192
1083.44	216
1092.65	204
1101.86	248
1111.05	826
1120.22	378
1129.39	250
1138.54	256
1147.69	232
1156.82	234
1165.94	256
1175.05	270
1184.14	594
1193.23	464
1202.3	460
1211.36	314
1220.41	264
1229.45	344
1238.48	256
1247.5	210
1256.5	240
1265.49	242
1274.48	266
1283.45	364
1292.41	502
1301.36	1596
1310.29	1350
1319.22	518
1328.13	462
1337.04	334
1345.93	350
1354.81	354
1363.68	322
1372.54	542
1381.38	1068
1390.22	384
1399.05	274
1407.86	266
1416.66	308
1425.46	406
1434.24	460
1443.01	468
1451.77	382
1460.52	390
1469.25	362
1477.98	354
1486.7	324
1495.4	282
1504.1	294
1512.78	280
1521.45	284
1530.11	264
1538.76	270
1547.41	276
1556.03	292
1564.65	294
1573.26	356
1581.86	484
1590.45	728
1599.02	1372
1607.59	1272
1616.14	702
1624.69	390
1633.22	292
1641.75	264
1650.26	260
1658.76	220
1667.26	238
1675.74	224
1684.21	254
1692.67	256
1701.12	230
1709.56	236
1717.99	246
1726.41	236
1734.82	202
1743.22	214
1751.61	220
1759.99	200
1768.36	218
1776.71	198
1785.06	198
1793.4	212
1801.73	206
1810.04	194
1818.35	198
1826.65	214
1834.94	198
1843.21	226
1851.48	200
1859.74	198
1867.98	224
1876.22	218
1884.45	214
1892.67	218
1900.87	212
1909.07	202
1917.26	218
1925.43	212
1933.6	206
1941.76	202
1949.91	200
1958.05	198
1966.17	214
1974.29	220
1982.4	214
1990.5	230
1998.59	216
2006.67	208
2014.74	206
2022.8	200
2030.85	196
2038.89	208
2046.92	216
2054.94	220
2062.95	210
2070.96	216
2078.95	208
2086.93	222
2094.91	218
2102.87	206
2110.83	218
2118.77	210
2126.71	236
2134.63	208
2142.55	208
2150.46	212
2158.35	208
2166.24	202
2174.12	212
2181.99	230
2189.85	204
2197.7	200
2205.55	186
2213.38	222
2221.2	198
2229.02	200
2236.82	204
2244.62	214
2252.4	220
2260.18	214
2267.95	222
2275.71	198
2283.46	212
2291.2	218
2298.93	206
2306.65	208
2314.37	212
2322.07	210
2329.77	232
2337.45	224
2345.13	214
2352.8	194
2360.46	206
2368.11	216
2375.75	224
2383.38	228
2391.01	238
2398.62	226
2406.23	204
2413.82	220
2421.41	216
2428.99	190
2436.56	214
2444.12	214
2449.79	210