File: Jesse_Dataset_v2/Pure Raman/Polypropylene oxide/633nm/ps-ppo-7jan25-0,0000-map2_Y00_X00.txt
182.393	782
192.79	660
203.174	612
213.542	550
223.897	702
234.238	1384
244.566	962
254.878	574
265.178	402
275.463	348
285.734	472
295.992	704
306.236	544
316.467	438
326.684	444
336.887	474
347.075	430
357.251	440
367.413	420
377.562	394
387.697	330
397.819	318
407.926	376
418.02	436
428.101	304
438.169	238
448.223	238
458.264	270
468.291	318
478.306	490
488.307	536
498.294	314
508.269	346
518.23	384
528.177	486
538.113	908
548.034	540
557.942	582
567.838	2890
577.72	1636
587.589	700
597.446	514
607.289	332
617.119	320
626.936	350
636.741	392
646.533	328
656.313	306
666.078	258
675.831	258
685.571	268
695.299	248
705.014	262
714.716	324
724.406	292
734.082	292
743.746	368
753.398	380
763.037	296
772.664	308
782.278	300
791.879	274
801.467	282
811.044	286
820.608	322
830.16	890
839.699	512
849.226	332
858.741	328
868.243	280
877.731	278
887.209	278
896.674	248
906.128	264
915.569	284
924.997	282
934.414	302
943.818	338
953.211	660
962.59	1000
971.958	550
981.314	344
990.659	312
999.99	296
1009.31	298
1018.62	328
1027.91	356
1037.2	362
1046.47	320
1055.73	302
1064.98	300
1074.22	290
1083.44	300
1092.65	308
1101.86	332
1111.05	942
1120.22	464
1129.39	350
1138.54	350
1147.69	316
1156.82	344
1165.94	362
1175.05	390
1184.14	692
1193.23	570
1202.3	566
1211.36	420
1220.41	350
1229.45	440
1238.48	352
1247.5	316
1256.5	332
1265.49	340
1274.48	386
1283.45	458
1292.41	612
1301.36	1770
1310.29	1460
1319.22	652
1328.13	560
1337.04	460
1345.93	472
1354.81	460
1363.68	422
1372.54	652
1381.38	1140
1390.22	498
1399.05	376
1407.86	374
1416.66	406
1425.46	510
1434.24	572
1443.01	636
1451.77	504
1460.52	466
1469.25	450
1477.98	470
1486.7	406
1495.4	386
1504.1	382
1512.78	396
1521.45	396
1530.11	394
1538.76	382
1547.41	360
1556.03	392
1564.65	402
1573.26	440
1581.86	552
1590.45	892
1599.02	1526
1607.59	1378
1616.14	842
1624.69	502
1633.22	382
1641.75	378
1650.26	354
1658.76	340
1667.26	334
1675.74	316
1684.21	356
1692.67	330
1701.12	324
1709.56	354
1717.99	324
1726.41	316
1734.82	288
1743.22	304
1751.61	326
1759.99	288
1768.36	306
1776.71	302
1785.06	298
1793.4	290
1801.73	290
1810.04	292
1818.35	274
1826.65	282
1834.94	282
1843.21	286
1851.48	292
1859.74	296
1867.98	286
1876.22	284
1884.45	312
1892.67	294
1900.87	306
1909.07	296
1917.26	306
1925.43	292
1933.6	318
1941.76	306
1949.91	298
1958.05	304
1966.17	294
1974.29	274
1982.4	288
1990.5	296
1998.59	314
2006.67	286
2014.74	292
2022.8	304
2030.85	288
2038.89	306
2046.92	282
2054.94	302
2062.95	290
2070.96	300
2078.95	278
2086.93	280
2094.91	294
2102.87	294
2110.83	276
2118.77	286
2126.71	284
2134.63	302
2142.55	282
2150.46	290
2158.35	262
2166.24	284
2174.12	290
2181.99	274
2189.85	294
2197.7	292
2205.55	276
2213.38	288
2221.2	276
2229.02	262
2236.82	288
2244.62	276
2252.4	276
2260.18	270
2267.95	290
2275.71	268
2283.46	290
2291.2	272
2298.93	282
2306.65	268
2314.37	276
2322.07	298
2329.77	266
2337.45	278
2345.13	282
2352.8	262
2360.46	268
2368.11	250
2375.75	268
2383.38	264
2391.01	288
2398.62	286
2406.23	286
2413.82	264
2421.41	260
2428.99	280
2436.56	260
2444.12	268
2449.79	274