File: Jesse_Dataset_v2/Pure Raman/Polypropylene oxide/633nm/ps-ppo-7jan25-0,0000-map2_Y05_X01.txt
182.393	720
192.79	604
203.174	514
213.542	444
223.897	602
234.238	1282
244.566	908
254.878	480
265.178	326
275.463	290
285.734	384
295.992	640
306.236	492
316.467	392
326.684	374
336.887	394
347.075	344
357.251	382
367.413	324
377.562	308
387.697	244
397.819	226
407.926	286
418.02	330
428.101	240
438.169	178
448.223	188
458.264	182
468.291	264
478.306	410
488.307	460
498.294	234
508.269	258
518.23	304
528.177	392
538.113	802
548.034	458
557.942	550
567.838	2718
577.72	1582
587.589	610
597.446	440
607.289	246
617.119	220
626.936	272
636.741	320
646.533	256
656.313	228
666.078	188
675.831	176
685.571	174
695.299	184
705.014	174
714.716	256
724.406	200
734.082	218
743.746	294
753.398	280
763.037	208
772.664	214
782.278	240
791.879	212
801.467	202
811.044	214
820.608	260
830.16	836
839.699	398
849.226	278
858.741	228
868.243	198
877.731	190
887.209	194
896.674	182
906.128	170
915.569	176
924.997	188
934.414	202
943.818	248
953.211	558
962.59	862
971.958	442
981.314	248
990.659	220
999.99	214
1009.31	210
1018.62	246
1027.91	262
1037.2	278
1046.47	242
1055.73	214
1064.98	196
1074.22	192
1083.44	208
1092.65	212
1101.86	234
1111.05	828
1120.22	392
1129.39	254
1138.54	252
1147.69	222
1156.82	258
1165.94	274
1175.05	284
1184.14	590
1193.23	440
1202.3	494
1211.36	302
1220.41	258
1229.45	348
1238.48	254
1247.5	230
1256.5	226
1265.49	256
1274.48	276
1283.45	358
1292.41	538
1301.36	1596
1310.29	1306
1319.22	524
1328.13	452
1337.04	364
1345.93	384
1354.81	354
1363.68	322
1372.54	556
1381.38	1064
1390.22	402
1399.05	294
1407.86	288
1416.66	328
1425.46	418
1434.24	466
1443.01	488
1451.77	398
1460.52	386
1469.25	406
1477.98	390
1486.7	302
1495.4	284
1504.1	286
1512.78	312
1521.45	276
1530.11	290
1538.76	278
1547.41	290
1556.03	294
1564.65	302
1573.26	364
1581.86	460
1590.45	768
1599.02	1378
1607.59	1338
1616.14	728
1624.69	410
1633.22	302
1641.75	258
1650.26	250
1658.76	242
1667.26	242
1675.74	240
1684.21	240
1692.67	254
1701.12	248
1709.56	224
1717.99	256
1726.41	220
1734.82	204
1743.22	210
1751.61	220
1759.99	216
1768.36	210
1776.71	210
1785.06	196
1793.4	208
1801.73	228
1810.04	226
1818.35	194
1826.65	242
1834.94	208
1843.21	218
1851.48	224
1859.74	222
1867.98	202
1876.22	228
1884.45	214
1892.67	220
1900.87	216
1909.07	212
1917.26	220
1925.43	218
1933.6	214
1941.76	220
1949.91	222
1958.05	204
1966.17	222
1974.29	204
1982.4	226
1990.5	204
1998.59	212
2006.67	212
2014.74	224
2022.8	214
2030.85	206
2038.89	212
2046.92	206
2054.94	212
2062.95	208
2070.96	214
2078.95	220
2086.93	218
2094.91	222
2102.87	224
2110.83	232
2118.77	214
2126.71	222
2134.63	228
2142.55	196
2150.46	226
2158.35	244
2166.24	208
2174.12	228
2181.99	210
2189.85	208
2197.7	230
2205.55	214
2213.38	228
2221.2	208
2229.02	214
2236.82	194
2244.62	204
2252.4	208
2260.18	226
2267.95	228
2275.71	206
2283.46	228
2291.2	232
2298.93	220
2306.65	218
2314.37	218
2322.07	224
2329.77	226
2337.45	228
2345.13	216
2352.8	216
2360.46	236
2368.11	222
2375.75	222
2383.38	222
2391.01	214
2398.62	228
2406.23	232
2413.82	210
2421.41	194
2428.99	210
2436.56	220
2444.12	226
2449.79	208