File: Jesse_Dataset_v2/Pure Raman/Polypropylene oxide/633nm/ps-ppo-7jan25-0,0000-map2_Y10_X01.txt
182.393	670
192.79	544
203.174	516
213.542	456
223.897	572
234.238	1174
244.566	824
254.878	460
265.178	308
275.463	262
285.734	384
295.992	614
306.236	450
316.467	372
326.684	364
336.887	386
347.075	340
357.251	358
367.413	304
377.562	314
387.697	242
397.819	222
407.926	284
418.02	344
428.101	220
438.169	186
448.223	156
458.264	194
468.291	218
478.306	362
488.307	444
498.294	228
508.269	262
518.23	322
528.177	378
538.113	730
548.034	418
557.942	474
567.838	2460
577.72	1500
587.589	568
597.446	446
607.289	244
617.119	196
626.936	276
636.741	330
646.533	246
656.313	184
666.078	168
675.831	168
685.571	166
695.299	168
705.014	166
714.716	244
724.406	206
734.082	206
743.746	272
753.398	278
763.037	190
772.664	192
782.278	214
791.879	206
801.467	180
811.044	208
820.608	228
830.16	754
839.699	376
849.226	258
858.741	248
868.243	198
877.731	184
887.209	190
896.674	178
906.128	176
915.569	170
924.997	190
934.414	190
943.818	266
953.211	550
962.59	832
971.958	434
981.314	238
990.659	240
999.99	180
1009.31	184
1018.62	202
1027.91	252
1037.2	272
1046.47	218
1055.73	208
1064.98	198
1074.22	188
1083.44	198
1092.65	208
1101.86	244
1111.05	820
1120.22	368
1129.39	226
1138.54	244
1147.69	222
1156.82	234
1165.94	262
1175.05	280
1184.14	516
1193.23	444
1202.3	458
1211.36	314
1220.41	246
1229.45	324
1238.48	256
1247.5	216
1256.5	224
1265.49	256
1274.48	244
1283.45	328
1292.41	498
1301.36	1498
1310.29	1282
1319.22	534
1328.13	426
1337.04	328
1345.93	380
1354.81	350
1363.68	292
1372.54	542
1381.38	1008
1390.22	394
1399.05	266
1407.86	260
1416.66	330
1425.46	394
1434.24	432
1443.01	498
1451.77	392
1460.52	352
1469.25	352
1477.98	384
1486.7	298
1495.4	264
1504.1	270
1512.78	268
1521.45	272
1530.11	250
1538.76	268
1547.41	270
1556.03	268
1564.65	292
1573.26	318
1581.86	466
1590.45	722
1599.02	1310
1607.59	1282
1616.14	708
1624.69	380
1633.22	302
1641.75	226
1650.26	262
1658.76	236
1667.26	238
1675.74	226
1684.21	240
1692.67	272
1701.12	236
1709.56	270
1717.99	248
1726.41	214
1734.82	210
1743.22	212
1751.61	220
1759.99	218
1768.36	224
1776.71	218
1785.06	200
1793.4	212
1801.73	188
1810.04	226
1818.35	206
1826.65	212
1834.94	198
1843.21	218
1851.48	206
1859.74	214
1867.98	202
1876.22	192
1884.45	196
1892.67	212
1900.87	210
1909.07	196
1917.26	208
1925.43	208
1933.6	218
1941.76	206
1949.91	224
1958.05	204
1966.17	224
1974.29	194
1982.4	190
1990.5	206
1998.59	208
2006.67	224
2014.74	204
2022.8	242
2030.85	204
2038.89	204
2046.92	204
2054.94	228
2062.95	214
2070.96	214
2078.95	198
2086.93	194
2094.91	202
2102.87	212
2110.83	214
2118.77	212
2126.71	214
2134.63	220
2142.55	218
2150.46	224
2158.35	216
2166.24	224
2174.12	198
2181.99	216
2189.85	212
2197.7	212
2205.55	208
2213.38	204
2221.2	206
2229.02	226
2236.82	200
2244.62	218
2252.4	208
2260.18	208
2267.95	222
2275.71	210
2283.46	206
2291.2	226
2298.93	214
2306.65	226
2314.37	232
2322.07	222
2329.77	236
2337.45	220
2345.13	212
2352.8	210
2360.46	216
2368.11	214
2375.75	216
2383.38	206
2391.01	230
2398.62	226
2406.23	212
2413.82	218
2421.41	210
2428.99	210
2436.56	210
2444.12	208
2449.79	216