File: Jesse_Dataset_v2/Pure Raman/Polypropylene oxide/633nm/ps-ppo-7jan25-0,0000-map2_Y09_X07.txt
182.393	712
192.79	598
203.174	480
213.542	434
223.897	562
234.238	1226
244.566	852
254.878	470
265.178	306
275.463	266
285.734	350
295.992	628
306.236	424
316.467	362
326.684	372
336.887	388
347.075	346
357.251	328
367.413	308
377.562	298
387.697	246
397.819	244
407.926	272
418.02	334
428.101	220
438.169	188
448.223	178
458.264	180
468.291	238
478.306	368
488.307	454
498.294	222
508.269	246
518.23	288
528.177	384
538.113	730
548.034	450
557.942	486
567.838	2552
577.72	1570
587.589	592
597.446	444
607.289	254
617.119	228
626.936	274
636.741	306
646.533	230
656.313	190
666.078	166
675.831	158
685.571	172
695.299	152
705.014	190
714.716	242
724.406	202
734.082	204
743.746	260
753.398	268
763.037	202
772.664	204
782.278	204
791.879	194
801.467	196
811.044	202
820.608	238
830.16	744
839.699	376
849.226	274
858.741	244
868.243	204
877.731	196
887.209	184
896.674	176
906.128	180
915.569	172
924.997	168
934.414	182
943.818	260
953.211	528
962.59	860
971.958	450
981.314	254
990.659	222
999.99	204
1009.31	206
1018.62	246
1027.91	262
1037.2	278
1046.47	250
1055.73	192
1064.98	220
1074.22	190
1083.44	200
1092.65	222
1101.86	248
1111.05	834
1120.22	388
1129.39	260
1138.54	256
1147.69	230
1156.82	224
1165.94	264
1175.05	278
1184.14	566
1193.23	458
1202.3	482
1211.36	316
1220.41	230
1229.45	346
1238.48	264
1247.5	216
1256.5	228
1265.49	258
1274.48	252
1283.45	336
1292.41	510
1301.36	1460
1310.29	1324
1319.22	524
1328.13	468
1337.04	346
1345.93	378
1354.81	350
1363.68	308
1372.54	518
1381.38	1038
1390.22	384
1399.05	272
1407.86	278
1416.66	322
1425.46	394
1434.24	460
1443.01	512
1451.77	406
1460.52	374
1469.25	336
1477.98	348
1486.7	310
1495.4	278
1504.1	274
1512.78	268
1521.45	252
1530.11	268
1538.76	270
1547.41	304
1556.03	290
1564.65	294
1573.26	348
1581.86	460
1590.45	740
1599.02	1308
1607.59	1268
1616.14	736
1624.69	406
1633.22	300
1641.75	282
1650.26	246
1658.76	248
1667.26	218
1675.74	238
1684.21	240
1692.67	254
1701.12	234
1709.56	214
1717.99	226
1726.41	208
1734.82	224
1743.22	212
1751.61	222
1759.99	204
1768.36	208
1776.71	224
1785.06	204
1793.4	214
1801.73	222
1810.04	204
1818.35	222
1826.65	216
1834.94	210
1843.21	220
1851.48	206
1859.74	200
1867.98	212
1876.22	214
1884.45	206
1892.67	198
1900.87	214
1909.07	202
1917.26	212
1925.43	210
1933.6	212
1941.76	216
1949.91	210
1958.05	190
1966.17	202
1974.29	208
1982.4	212
1990.5	206
1998.59	212
2006.67	218
2014.74	220
2022.8	220
2030.85	226
2038.89	224
2046.92	234
2054.94	214
2062.95	214
2070.96	206
2078.95	212
2086.93	212
2094.91	220
2102.87	218
2110.83	210
2118.77	200
2126.71	208
2134.63	210
2142.55	196
2150.46	220
2158.35	202
2166.24	204
2174.12	218
2181.99	218
2189.85	210
2197.7	196
2205.55	206
2213.38	212
2221.2	208
2229.02	220
2236.82	226
2244.62	212
2252.4	216
2260.18	220
2267.95	212
2275.71	204
2283.46	216
2291.2	200
2298.93	224
2306.65	196
2314.37	210
2322.07	218
2329.77	222
2337.45	220
2345.13	218
2352.8	222
2360.46	214
2368.11	218
2375.75	208
2383.38	212
2391.01	220
2398.62	228
2406.23	226
2413.82	216
2421.41	214
2428.99	190
2436.56	210
2444.12	202
2449.79	218