File: Jesse_Dataset_v2/Pure Raman/Polypropylene oxide/633nm/ps-ppo-7jan25-0,0000-map2_Y02_X10.txt
182.393	712
192.79	616
203.174	540
213.542	460
223.897	652
234.238	1358
244.566	920
254.878	480
265.178	330
275.463	302
285.734	386
295.992	656
306.236	498
316.467	396
326.684	406
336.887	420
347.075	378
357.251	366
367.413	350
377.562	322
387.697	250
397.819	252
407.926	286
418.02	380
428.101	246
438.169	196
448.223	180
458.264	188
468.291	266
478.306	430
488.307	460
498.294	258
508.269	266
518.23	338
528.177	412
538.113	818
548.034	466
557.942	552
567.838	2742
577.72	1602
587.589	628
597.446	482
607.289	248
617.119	212
626.936	288
636.741	354
646.533	268
656.313	210
666.078	186
675.831	190
685.571	184
695.299	186
705.014	198
714.716	264
724.406	230
734.082	252
743.746	282
753.398	316
763.037	218
772.664	244
782.278	240
791.879	222
801.467	204
811.044	210
820.608	272
830.16	828
839.699	422
849.226	290
858.741	260
868.243	224
877.731	204
887.209	200
896.674	198
906.128	194
915.569	180
924.997	206
934.414	214
943.818	296
953.211	604
962.59	904
971.958	460
981.314	270
990.659	248
999.99	222
1009.31	234
1018.62	250
1027.91	308
1037.2	294
1046.47	252
1055.73	236
1064.98	226
1074.22	238
1083.44	240
1092.65	234
1101.86	264
1111.05	874
1120.22	404
1129.39	274
1138.54	284
1147.69	260
1156.82	278
1165.94	312
1175.05	298
1184.14	602
1193.23	472
1202.3	502
1211.36	340
1220.41	260
1229.45	390
1238.48	282
1247.5	242
1256.5	238
1265.49	276
1274.48	290
1283.45	392
1292.41	526
1301.36	1590
1310.29	1374
1319.22	584
1328.13	494
1337.04	396
1345.93	402
1354.81	406
1363.68	344
1372.54	560
1381.38	1086
1390.22	426
1399.05	318
1407.86	308
1416.66	358
1425.46	460
1434.24	502
1443.01	548
1451.77	454
1460.52	412
1469.25	408
1477.98	400
1486.7	308
1495.4	326
1504.1	320
1512.78	314
1521.45	318
1530.11	302
1538.76	308
1547.41	318
1556.03	330
1564.65	326
1573.26	390
1581.86	506
1590.45	764
1599.02	1444
1607.59	1346
1616.14	778
1624.69	432
1633.22	320
1641.75	274
1650.26	280
1658.76	254
1667.26	274
1675.74	252
1684.21	260
1692.67	266
1701.12	254
1709.56	284
1717.99	262
1726.41	252
1734.82	250
1743.22	240
1751.61	258
1759.99	244
1768.36	232
1776.71	236
1785.06	250
1793.4	248
1801.73	228
1810.04	236
1818.35	246
1826.65	214
1834.94	246
1843.21	248
1851.48	246
1859.74	214
1867.98	228
1876.22	242
1884.45	234
1892.67	228
1900.87	244
1909.07	232
1917.26	244
1925.43	228
1933.6	228
1941.76	254
1949.91	236
1958.05	232
1966.17	250
1974.29	246
1982.4	234
1990.5	232
1998.59	254
2006.67	236
2014.74	234
2022.8	240
2030.85	226
2038.89	236
2046.92	234
2054.94	234
2062.95	232
2070.96	248
2078.95	218
2086.93	240
2094.91	232
2102.87	234
2110.83	238
2118.77	238
2126.71	240
2134.63	248
2142.55	238
2150.46	226
2158.35	236
2166.24	232
2174.12	252
2181.99	220
2189.85	238
2197.7	228
2205.55	234
2213.38	242
2221.2	232
2229.02	240
2236.82	246
2244.62	224
2252.4	228
2260.18	240
2267.95	222
2275.71	228
2283.46	224
2291.2	226
2298.93	238
2306.65	230
2314.37	222
2322.07	242
2329.77	246
2337.45	226
2345.13	224
2352.8	220
2360.46	252
2368.11	222
2375.75	224
2383.38	244
2391.01	228
2398.62	228
2406.23	230
2413.82	230
2421.41	214
2428.99	216
2436.56	224
2444.12	212
2449.79	234