File: Jesse_Dataset_v2/Pure Raman/Polypropylene oxide/633nm/ps-ppo-7jan25-0,0000-map2_Y07_X06.txt
182.393	654
192.79	604
203.174	528
213.542	460
223.897	602
234.238	1230
244.566	806
254.878	474
265.178	306
275.463	276
285.734	362
295.992	624
306.236	460
316.467	378
326.684	388
336.887	406
347.075	356
357.251	352
367.413	338
377.562	312
387.697	252
397.819	238
407.926	284
418.02	350
428.101	234
438.169	186
448.223	178
458.264	180
468.291	238
478.306	374
488.307	450
498.294	242
508.269	248
518.23	316
528.177	360
538.113	774
548.034	432
557.942	508
567.838	2594
577.72	1510
587.589	604
597.446	424
607.289	238
617.119	218
626.936	254
636.741	318
646.533	244
656.313	202
666.078	190
675.831	178
685.571	176
695.299	168
705.014	176
714.716	238
724.406	204
734.082	226
743.746	276
753.398	298
763.037	206
772.664	200
782.278	218
791.879	194
801.467	176
811.044	206
820.608	258
830.16	780
839.699	370
849.226	256
858.741	224
868.243	204
877.731	188
887.209	172
896.674	170
906.128	178
915.569	184
924.997	180
934.414	196
943.818	254
953.211	530
962.59	890
971.958	474
981.314	256
990.659	216
999.99	198
1009.31	194
1018.62	242
1027.91	264
1037.2	272
1046.47	228
1055.73	208
1064.98	188
1074.22	188
1083.44	210
1092.65	202
1101.86	254
1111.05	828
1120.22	402
1129.39	250
1138.54	258
1147.69	222
1156.82	242
1165.94	258
1175.05	286
1184.14	522
1193.23	430
1202.3	458
1211.36	296
1220.41	246
1229.45	342
1238.48	250
1247.5	222
1256.5	232
1265.49	242
1274.48	262
1283.45	376
1292.41	504
1301.36	1530
1310.29	1368
1319.22	558
1328.13	456
1337.04	348
1345.93	356
1354.81	362
1363.68	316
1372.54	542
1381.38	1078
1390.22	386
1399.05	266
1407.86	282
1416.66	330
1425.46	412
1434.24	450
1443.01	490
1451.77	422
1460.52	380
1469.25	372
1477.98	364
1486.7	302
1495.4	276
1504.1	274
1512.78	286
1521.45	260
1530.11	282
1538.76	272
1547.41	278
1556.03	294
1564.65	306
1573.26	352
1581.86	456
1590.45	762
1599.02	1340
1607.59	1242
1616.14	726
1624.69	388
1633.22	312
1641.75	264
1650.26	230
1658.76	242
1667.26	244
1675.74	232
1684.21	234
1692.67	270
1701.12	222
1709.56	246
1717.99	236
1726.41	234
1734.82	214
1743.22	228
1751.61	218
1759.99	220
1768.36	222
1776.71	206
1785.06	224
1793.4	230
1801.73	214
1810.04	220
1818.35	210
1826.65	198
1834.94	202
1843.21	228
1851.48	220
1859.74	226
1867.98	202
1876.22	212
1884.45	238
1892.67	212
1900.87	204
1909.07	202
1917.26	190
1925.43	214
1933.6	212
1941.76	210
1949.91	206
1958.05	212
1966.17	216
1974.29	180
1982.4	212
1990.5	212
1998.59	216
2006.67	212
2014.74	198
2022.8	208
2030.85	212
2038.89	212
2046.92	212
2054.94	214
2062.95	204
2070.96	230
2078.95	218
2086.93	190
2094.91	196
2102.87	204
2110.83	206
2118.77	198
2126.71	204
2134.63	220
2142.55	216
2150.46	214
2158.35	216
2166.24	220
2174.12	208
2181.99	198
2189.85	204
2197.7	204
2205.55	210
2213.38	208
2221.2	224
2229.02	194
2236.82	206
2244.62	212
2252.4	210
2260.18	220
2267.95	196
2275.71	216
2283.46	220
2291.2	212
2298.93	206
2306.65	196
2314.37	220
2322.07	216
2329.77	210
2337.45	208
2345.13	228
2352.8	212
2360.46	212
2368.11	208
2375.75	232
2383.38	216
2391.01	212
2398.62	232
2406.23	210
2413.82	230
2421.41	206
2428.99	204
2436.56	196
2444.12	212
2449.79	226