File: Jesse_Dataset_v2/Pure Raman/Polypropylene oxide/633nm/ps-ppo-7jan25-0,0000-map2_Y00_X10.txt
182.393	720
192.79	658
203.174	560
213.542	510
223.897	664
234.238	1364
244.566	960
254.878	522
265.178	376
275.463	330
285.734	408
295.992	680
306.236	508
316.467	418
326.684	428
336.887	454
347.075	384
357.251	416
367.413	370
377.562	358
387.697	296
397.819	298
407.926	318
418.02	392
428.101	274
438.169	246
448.223	216
458.264	234
468.291	282
478.306	460
488.307	490
498.294	268
508.269	296
518.23	342
528.177	448
538.113	850
548.034	478
557.942	590
567.838	2882
577.72	1584
587.589	676
597.446	514
607.289	272
617.119	268
626.936	330
636.741	378
646.533	308
656.313	242
666.078	204
675.831	212
685.571	206
695.299	214
705.014	238
714.716	284
724.406	250
734.082	270
743.746	320
753.398	344
763.037	258
772.664	256
782.278	272
791.879	246
801.467	232
811.044	272
820.608	300
830.16	882
839.699	444
849.226	306
858.741	302
868.243	264
877.731	244
887.209	230
896.674	244
906.128	248
915.569	214
924.997	238
934.414	258
943.818	306
953.211	626
962.59	972
971.958	504
981.314	302
990.659	282
999.99	264
1009.31	252
1018.62	290
1027.91	310
1037.2	346
1046.47	284
1055.73	276
1064.98	274
1074.22	242
1083.44	256
1092.65	272
1101.86	290
1111.05	890
1120.22	434
1129.39	298
1138.54	310
1147.69	294
1156.82	306
1165.94	334
1175.05	352
1184.14	646
1193.23	488
1202.3	550
1211.36	380
1220.41	316
1229.45	398
1238.48	292
1247.5	280
1256.5	276
1265.49	310
1274.48	298
1283.45	402
1292.41	564
1301.36	1672
1310.29	1420
1319.22	598
1328.13	514
1337.04	372
1345.93	404
1354.81	400
1363.68	372
1372.54	616
1381.38	1092
1390.22	440
1399.05	318
1407.86	318
1416.66	396
1425.46	470
1434.24	520
1443.01	556
1451.77	442
1460.52	446
1469.25	398
1477.98	436
1486.7	366
1495.4	344
1504.1	340
1512.78	344
1521.45	330
1530.11	324
1538.76	322
1547.41	336
1556.03	338
1564.65	350
1573.26	396
1581.86	548
1590.45	828
1599.02	1482
1607.59	1366
1616.14	804
1624.69	456
1633.22	348
1641.75	346
1650.26	286
1658.76	272
1667.26	272
1675.74	258
1684.21	300
1692.67	292
1701.12	300
1709.56	308
1717.99	298
1726.41	262
1734.82	268
1743.22	278
1751.61	254
1759.99	260
1768.36	266
1776.71	258
1785.06	280
1793.4	264
1801.73	274
1810.04	262
1818.35	262
1826.65	272
1834.94	264
1843.21	246
1851.48	262
1859.74	278
1867.98	258
1876.22	270
1884.45	256
1892.67	268
1900.87	278
1909.07	268
1917.26	286
1925.43	246
1933.6	256
1941.76	256
1949.91	242
1958.05	262
1966.17	250
1974.29	252
1982.4	264
1990.5	288
1998.59	262
2006.67	276
2014.74	236
2022.8	260
2030.85	254
2038.89	252
2046.92	240
2054.94	266
2062.95	268
2070.96	256
2078.95	264
2086.93	260
2094.91	264
2102.87	250
2110.83	232
2118.77	266
2126.71	236
2134.63	268
2142.55	266
2150.46	270
2158.35	260
2166.24	244
2174.12	240
2181.99	278
2189.85	256
2197.7	244
2205.55	244
2213.38	254
2221.2	266
2229.02	252
2236.82	238
2244.62	270
2252.4	236
2260.18	270
2267.95	252
2275.71	234
2283.46	228
2291.2	254
2298.93	240
2306.65	240
2314.37	226
2322.07	266
2329.77	268
2337.45	240
2345.13	258
2352.8	258
2360.46	254
2368.11	252
2375.75	250
2383.38	244
2391.01	256
2398.62	266
2406.23	272
2413.82	242
2421.41	250
2428.99	234
2436.56	250
2444.12	232
2449.79	230