File: Jesse_Dataset_v2/Pure Raman/Polypropylene oxide/633nm/ps-ppo-7jan25-0,0000-map2_Y04_X09.txt
182.393	720
192.79	586
203.174	526
213.542	464
223.897	620
234.238	1296
244.566	914
254.878	484
265.178	338
275.463	282
285.734	386
295.992	612
306.236	450
316.467	378
326.684	372
336.887	398
347.075	356
357.251	382
367.413	344
377.562	316
387.697	250
397.819	254
407.926	304
418.02	364
428.101	248
438.169	200
448.223	186
458.264	186
468.291	254
478.306	406
488.307	436
498.294	252
508.269	274
518.23	344
528.177	414
538.113	796
548.034	502
557.942	528
567.838	2702
577.72	1566
587.589	588
597.446	446
607.289	260
617.119	242
626.936	284
636.741	362
646.533	270
656.313	212
666.078	192
675.831	178
685.571	168
695.299	158
705.014	188
714.716	256
724.406	222
734.082	214
743.746	284
753.398	304
763.037	216
772.664	212
782.278	228
791.879	208
801.467	204
811.044	230
820.608	248
830.16	806
839.699	396
849.226	260
858.741	252
868.243	210
877.731	198
887.209	194
896.674	184
906.128	194
915.569	188
924.997	206
934.414	208
943.818	264
953.211	554
962.59	900
971.958	470
981.314	266
990.659	254
999.99	222
1009.31	216
1018.62	254
1027.91	286
1037.2	278
1046.47	248
1055.73	220
1064.98	222
1074.22	214
1083.44	230
1092.65	226
1101.86	262
1111.05	830
1120.22	384
1129.39	262
1138.54	254
1147.69	256
1156.82	254
1165.94	286
1175.05	274
1184.14	580
1193.23	470
1202.3	478
1211.36	296
1220.41	254
1229.45	354
1238.48	250
1247.5	238
1256.5	250
1265.49	260
1274.48	292
1283.45	358
1292.41	516
1301.36	1574
1310.29	1378
1319.22	576
1328.13	472
1337.04	356
1345.93	366
1354.81	380
1363.68	322
1372.54	552
1381.38	1082
1390.22	406
1399.05	266
1407.86	282
1416.66	334
1425.46	448
1434.24	444
1443.01	494
1451.77	426
1460.52	394
1469.25	358
1477.98	366
1486.7	304
1495.4	324
1504.1	308
1512.78	282
1521.45	286
1530.11	296
1538.76	288
1547.41	292
1556.03	310
1564.65	280
1573.26	342
1581.86	456
1590.45	756
1599.02	1358
1607.59	1282
1616.14	756
1624.69	388
1633.22	312
1641.75	288
1650.26	260
1658.76	244
1667.26	240
1675.74	264
1684.21	248
1692.67	252
1701.12	246
1709.56	254
1717.99	248
1726.41	240
1734.82	206
1743.22	234
1751.61	228
1759.99	216
1768.36	228
1776.71	212
1785.06	236
1793.4	218
1801.73	210
1810.04	218
1818.35	230
1826.65	218
1834.94	234
1843.21	248
1851.48	230
1859.74	212
1867.98	232
1876.22	244
1884.45	222
1892.67	226
1900.87	224
1909.07	210
1917.26	226
1925.43	214
1933.6	238
1941.76	236
1949.91	228
1958.05	222
1966.17	240
1974.29	216
1982.4	228
1990.5	216
1998.59	210
2006.67	230
2014.74	228
2022.8	214
2030.85	224
2038.89	226
2046.92	222
2054.94	214
2062.95	228
2070.96	214
2078.95	216
2086.93	226
2094.91	240
2102.87	228
2110.83	226
2118.77	214
2126.71	246
2134.63	214
2142.55	200
2150.46	208
2158.35	228
2166.24	228
2174.12	212
2181.99	212
2189.85	216
2197.7	216
2205.55	232
2213.38	220
2221.2	224
2229.02	226
2236.82	210
2244.62	228
2252.4	240
2260.18	204
2267.95	228
2275.71	236
2283.46	222
2291.2	224
2298.93	226
2306.65	232
2314.37	244
2322.07	220
2329.77	224
2337.45	220
2345.13	230
2352.8	224
2360.46	234
2368.11	216
2375.75	216
2383.38	226
2391.01	226
2398.62	218
2406.23	228
2413.82	214
2421.41	220
2428.99	198
2436.56	212
2444.12	216
2449.79	220