File: Jesse_Dataset_v2/Pure Raman/Polypropylene oxide/633nm/ps-ppo-7jan25-0,0000-map2_Y06_X08.txt
182.393	710
192.79	598
203.174	512
213.542	436
223.897	584
234.238	1254
244.566	844
254.878	454
265.178	304
275.463	284
285.734	366
295.992	626
306.236	446
316.467	364
326.684	368
336.887	400
347.075	324
357.251	336
367.413	316
377.562	318
387.697	224
397.819	232
407.926	268
418.02	312
428.101	214
438.169	194
448.223	162
458.264	182
468.291	230
478.306	390
488.307	434
498.294	226
508.269	250
518.23	320
528.177	392
538.113	792
548.034	440
557.942	510
567.838	2620
577.72	1518
587.589	602
597.446	450
607.289	252
617.119	226
626.936	274
636.741	324
646.533	238
656.313	200
666.078	174
675.831	152
685.571	168
695.299	154
705.014	186
714.716	244
724.406	200
734.082	212
743.746	282
753.398	286
763.037	202
772.664	190
782.278	222
791.879	190
801.467	192
811.044	202
820.608	248
830.16	822
839.699	408
849.226	264
858.741	234
868.243	204
877.731	200
887.209	186
896.674	180
906.128	178
915.569	178
924.997	188
934.414	206
943.818	272
953.211	526
962.59	852
971.958	444
981.314	242
990.659	224
999.99	220
1009.31	196
1018.62	230
1027.91	248
1037.2	276
1046.47	226
1055.73	204
1064.98	194
1074.22	200
1083.44	204
1092.65	204
1101.86	252
1111.05	818
1120.22	398
1129.39	268
1138.54	248
1147.69	228
1156.82	232
1165.94	258
1175.05	266
1184.14	556
1193.23	452
1202.3	494
1211.36	296
1220.41	246
1229.45	342
1238.48	250
1247.5	230
1256.5	216
1265.49	252
1274.48	266
1283.45	346
1292.41	502
1301.36	1594
1310.29	1298
1319.22	546
1328.13	468
1337.04	338
1345.93	378
1354.81	358
1363.68	316
1372.54	562
1381.38	1060
1390.22	398
1399.05	298
1407.86	268
1416.66	320
1425.46	418
1434.24	472
1443.01	500
1451.77	388
1460.52	366
1469.25	360
1477.98	374
1486.7	308
1495.4	276
1504.1	298
1512.78	262
1521.45	276
1530.11	262
1538.76	276
1547.41	292
1556.03	284
1564.65	304
1573.26	354
1581.86	456
1590.45	750
1599.02	1374
1607.59	1276
1616.14	714
1624.69	406
1633.22	300
1641.75	272
1650.26	248
1658.76	250
1667.26	216
1675.74	232
1684.21	236
1692.67	254
1701.12	256
1709.56	232
1717.99	222
1726.41	228
1734.82	208
1743.22	224
1751.61	200
1759.99	218
1768.36	218
1776.71	228
1785.06	212
1793.4	216
1801.73	196
1810.04	202
1818.35	220
1826.65	202
1834.94	206
1843.21	212
1851.48	214
1859.74	204
1867.98	196
1876.22	206
1884.45	196
1892.67	212
1900.87	190
1909.07	220
1917.26	214
1925.43	196
1933.6	222
1941.76	216
1949.91	206
1958.05	218
1966.17	214
1974.29	198
1982.4	222
1990.5	214
1998.59	208
2006.67	212
2014.74	208
2022.8	212
2030.85	212
2038.89	204
2046.92	216
2054.94	222
2062.95	194
2070.96	216
2078.95	220
2086.93	220
2094.91	214
2102.87	204
2110.83	200
2118.77	224
2126.71	202
2134.63	212
2142.55	212
2150.46	206
2158.35	200
2166.24	210
2174.12	194
2181.99	200
2189.85	220
2197.7	222
2205.55	192
2213.38	204
2221.2	214
2229.02	206
2236.82	194
2244.62	222
2252.4	206
2260.18	216
2267.95	218
2275.71	214
2283.46	204
2291.2	200
2298.93	222
2306.65	200
2314.37	202
2322.07	228
2329.77	210
2337.45	220
2345.13	212
2352.8	196
2360.46	204
2368.11	214
2375.75	202
2383.38	220
2391.01	214
2398.62	230
2406.23	212
2413.82	208
2421.41	216
2428.99	214
2436.56	206
2444.12	192
2449.79	210