File: Jesse_Dataset_v2/Pure Raman/Polypropylene oxide/633nm/ps-ppo-7jan25-0,0000-map2_Y04_X07.txt
182.393	690
192.79	582
203.174	502
213.542	422
223.897	592
234.238	1252
244.566	834
254.878	468
265.178	304
275.463	256
285.734	364
295.992	616
306.236	456
316.467	370
326.684	356
336.887	392
347.075	308
357.251	336
367.413	308
377.562	298
387.697	230
397.819	220
407.926	258
418.02	328
428.101	244
438.169	182
448.223	158
458.264	162
468.291	212
478.306	370
488.307	426
498.294	220
508.269	218
518.23	300
528.177	386
538.113	758
548.034	426
557.942	464
567.838	2670
577.72	1474
587.589	582
597.446	430
607.289	222
617.119	214
626.936	236
636.741	282
646.533	228
656.313	190
666.078	164
675.831	128
685.571	150
695.299	152
705.014	170
714.716	220
724.406	182
734.082	184
743.746	240
753.398	278
763.037	182
772.664	176
782.278	200
791.879	170
801.467	178
811.044	196
820.608	208
830.16	782
839.699	374
849.226	226
858.741	208
868.243	188
877.731	160
887.209	158
896.674	162
906.128	168
915.569	164
924.997	174
934.414	186
943.818	194
953.211	506
962.59	854
971.958	416
981.314	218
990.659	208
999.99	168
1009.31	170
1018.62	196
1027.91	248
1037.2	264
1046.47	206
1055.73	184
1064.98	178
1074.22	176
1083.44	178
1092.65	198
1101.86	222
1111.05	854
1120.22	370
1129.39	226
1138.54	232
1147.69	198
1156.82	224
1165.94	244
1175.05	238
1184.14	528
1193.23	440
1202.3	434
1211.36	282
1220.41	214
1229.45	320
1238.48	226
1247.5	216
1256.5	204
1265.49	226
1274.48	250
1283.45	312
1292.41	474
1301.36	1570
1310.29	1316
1319.22	518
1328.13	448
1337.04	330
1345.93	330
1354.81	308
1363.68	258
1372.54	544
1381.38	984
1390.22	366
1399.05	260
1407.86	250
1416.66	300
1425.46	408
1434.24	452
1443.01	468
1451.77	398
1460.52	342
1469.25	350
1477.98	350
1486.7	284
1495.4	258
1504.1	250
1512.78	244
1521.45	228
1530.11	274
1538.76	244
1547.41	242
1556.03	256
1564.65	266
1573.26	314
1581.86	450
1590.45	732
1599.02	1292
1607.59	1220
1616.14	732
1624.69	394
1633.22	282
1641.75	242
1650.26	226
1658.76	210
1667.26	202
1675.74	192
1684.21	218
1692.67	230
1701.12	224
1709.56	218
1717.99	216
1726.41	210
1734.82	194
1743.22	200
1751.61	184
1759.99	202
1768.36	178
1776.71	188
1785.06	196
1793.4	168
1801.73	184
1810.04	194
1818.35	180
1826.65	190
1834.94	180
1843.21	186
1851.48	168
1859.74	180
1867.98	190
1876.22	192
1884.45	184
1892.67	196
1900.87	194
1909.07	196
1917.26	180
1925.43	200
1933.6	180
1941.76	198
1949.91	190
1958.05	200
1966.17	162
1974.29	184
1982.4	184
1990.5	188
1998.59	190
2006.67	202
2014.74	198
2022.8	188
2030.85	188
2038.89	184
2046.92	182
2054.94	176
2062.95	200
2070.96	190
2078.95	194
2086.93	182
2094.91	192
2102.87	186
2110.83	184
2118.77	176
2126.71	188
2134.63	194
2142.55	182
2150.46	174
2158.35	186
2166.24	188
2174.12	194
2181.99	190
2189.85	192
2197.7	196
2205.55	206
2213.38	186
2221.2	186
2229.02	192
2236.82	182
2244.62	180
2252.4	186
2260.18	186
2267.95	196
2275.71	208
2283.46	196
2291.2	178
2298.93	178
2306.65	200
2314.37	200
2322.07	206
2329.77	190
2337.45	184
2345.13	198
2352.8	194
2360.46	192
2368.11	216
2375.75	192
2383.38	202
2391.01	194
2398.62	204
2406.23	204
2413.82	186
2421.41	182
2428.99	210
2436.56	204
2444.12	212
2449.79	190