File: Jesse_Dataset_v2/Pure Raman/Polypropylene oxide/633nm/ps-ppo-7jan25-0,0000-map2_Y05_X02.txt
182.393	696
192.79	610
203.174	500
213.542	460
223.897	630
234.238	1268
244.566	836
254.878	472
265.178	322
275.463	274
285.734	384
295.992	608
306.236	482
316.467	364
326.684	380
336.887	404
347.075	340
357.251	352
367.413	322
377.562	318
387.697	258
397.819	228
407.926	276
418.02	354
428.101	218
438.169	184
448.223	174
458.264	172
468.291	226
478.306	398
488.307	456
498.294	244
508.269	260
518.23	304
528.177	372
538.113	748
548.034	444
557.942	492
567.838	2706
577.72	1554
587.589	566
597.446	440
607.289	252
617.119	224
626.936	262
636.741	346
646.533	246
656.313	200
666.078	174
675.831	164
685.571	162
695.299	184
705.014	192
714.716	270
724.406	210
734.082	198
743.746	272
753.398	290
763.037	216
772.664	190
782.278	202
791.879	200
801.467	186
811.044	212
820.608	254
830.16	780
839.699	392
849.226	254
858.741	222
868.243	206
877.731	206
887.209	178
896.674	166
906.128	178
915.569	178
924.997	182
934.414	188
943.818	246
953.211	566
962.59	928
971.958	452
981.314	246
990.659	228
999.99	186
1009.31	194
1018.62	224
1027.91	264
1037.2	286
1046.47	232
1055.73	208
1064.98	196
1074.22	214
1083.44	202
1092.65	206
1101.86	244
1111.05	824
1120.22	386
1129.39	234
1138.54	238
1147.69	220
1156.82	242
1165.94	256
1175.05	286
1184.14	546
1193.23	452
1202.3	464
1211.36	310
1220.41	238
1229.45	354
1238.48	238
1247.5	238
1256.5	238
1265.49	252
1274.48	256
1283.45	364
1292.41	450
1301.36	1594
1310.29	1322
1319.22	540
1328.13	460
1337.04	344
1345.93	370
1354.81	364
1363.68	314
1372.54	566
1381.38	1034
1390.22	384
1399.05	282
1407.86	266
1416.66	310
1425.46	418
1434.24	460
1443.01	482
1451.77	412
1460.52	360
1469.25	364
1477.98	358
1486.7	320
1495.4	276
1504.1	278
1512.78	284
1521.45	266
1530.11	266
1538.76	258
1547.41	290
1556.03	284
1564.65	326
1573.26	330
1581.86	488
1590.45	760
1599.02	1372
1607.59	1290
1616.14	748
1624.69	392
1633.22	286
1641.75	260
1650.26	232
1658.76	234
1667.26	238
1675.74	216
1684.21	242
1692.67	252
1701.12	246
1709.56	248
1717.99	220
1726.41	210
1734.82	196
1743.22	222
1751.61	216
1759.99	208
1768.36	220
1776.71	234
1785.06	204
1793.4	200
1801.73	204
1810.04	214
1818.35	206
1826.65	194
1834.94	202
1843.21	218
1851.48	200
1859.74	212
1867.98	220
1876.22	218
1884.45	208
1892.67	208
1900.87	206
1909.07	218
1917.26	218
1925.43	222
1933.6	202
1941.76	214
1949.91	208
1958.05	202
1966.17	210
1974.29	206
1982.4	202
1990.5	206
1998.59	228
2006.67	208
2014.74	208
2022.8	204
2030.85	208
2038.89	204
2046.92	230
2054.94	210
2062.95	230
2070.96	214
2078.95	198
2086.93	210
2094.91	208
2102.87	204
2110.83	210
2118.77	216
2126.71	202
2134.63	210
2142.55	214
2150.46	198
2158.35	210
2166.24	192
2174.12	204
2181.99	208
2189.85	210
2197.7	188
2205.55	198
2213.38	206
2221.2	202
2229.02	210
2236.82	204
2244.62	196
2252.4	204
2260.18	208
2267.95	192
2275.71	210
2283.46	208
2291.2	214
2298.93	204
2306.65	210
2314.37	210
2322.07	212
2329.77	220
2337.45	208
2345.13	216
2352.8	218
2360.46	212
2368.11	204
2375.75	206
2383.38	196
2391.01	210
2398.62	224
2406.23	206
2413.82	224
2421.41	220
2428.99	194
2436.56	208
2444.12	210
2449.79	214