File: Jesse_Dataset_v2/Pure Raman/Polypropylene oxide/633nm/ps-ppo-7jan25-0,0000-map2_Y01_X00.txt
182.393	758
192.79	630
203.174	560
213.542	506
223.897	662
234.238	1316
244.566	938
254.878	532
265.178	330
275.463	310
285.734	438
295.992	696
306.236	498
316.467	434
326.684	440
336.887	436
347.075	392
357.251	412
367.413	380
377.562	356
387.697	284
397.819	302
407.926	342
418.02	398
428.101	278
438.169	226
448.223	214
458.264	234
468.291	274
478.306	456
488.307	508
498.294	278
508.269	312
518.23	354
528.177	432
538.113	840
548.034	504
557.942	560
567.838	2798
577.72	1626
587.589	656
597.446	516
607.289	302
617.119	254
626.936	318
636.741	376
646.533	272
656.313	234
666.078	218
675.831	204
685.571	228
695.299	220
705.014	242
714.716	308
724.406	240
734.082	248
743.746	326
753.398	336
763.037	232
772.664	240
782.278	268
791.879	254
801.467	242
811.044	246
820.608	294
830.16	872
839.699	452
849.226	316
858.741	286
868.243	278
877.731	238
887.209	220
896.674	238
906.128	216
915.569	218
924.997	226
934.414	272
943.818	314
953.211	602
962.59	968
971.958	506
981.314	290
990.659	296
999.99	250
1009.31	266
1018.62	280
1027.91	322
1037.2	338
1046.47	284
1055.73	254
1064.98	256
1074.22	250
1083.44	252
1092.65	270
1101.86	318
1111.05	880
1120.22	450
1129.39	342
1138.54	306
1147.69	278
1156.82	306
1165.94	292
1175.05	340
1184.14	598
1193.23	476
1202.3	534
1211.36	336
1220.41	298
1229.45	422
1238.48	300
1247.5	284
1256.5	286
1265.49	310
1274.48	310
1283.45	412
1292.41	550
1301.36	1668
1310.29	1414
1319.22	602
1328.13	546
1337.04	390
1345.93	422
1354.81	408
1363.68	374
1372.54	570
1381.38	1078
1390.22	434
1399.05	318
1407.86	322
1416.66	398
1425.46	446
1434.24	504
1443.01	554
1451.77	488
1460.52	432
1469.25	430
1477.98	410
1486.7	390
1495.4	352
1504.1	328
1512.78	324
1521.45	302
1530.11	338
1538.76	316
1547.41	344
1556.03	330
1564.65	356
1573.26	416
1581.86	510
1590.45	844
1599.02	1440
1607.59	1312
1616.14	778
1624.69	474
1633.22	344
1641.75	296
1650.26	306
1658.76	286
1667.26	286
1675.74	276
1684.21	274
1692.67	306
1701.12	292
1709.56	274
1717.99	278
1726.41	282
1734.82	254
1743.22	260
1751.61	268
1759.99	246
1768.36	270
1776.71	242
1785.06	250
1793.4	262
1801.73	262
1810.04	270
1818.35	260
1826.65	248
1834.94	246
1843.21	268
1851.48	250
1859.74	246
1867.98	258
1876.22	258
1884.45	250
1892.67	242
1900.87	234
1909.07	244
1917.26	252
1925.43	270
1933.6	248
1941.76	244
1949.91	274
1958.05	260
1966.17	242
1974.29	266
1982.4	262
1990.5	248
1998.59	278
2006.67	278
2014.74	250
2022.8	280
2030.85	242
2038.89	260
2046.92	240
2054.94	244
2062.95	248
2070.96	262
2078.95	238
2086.93	262
2094.91	250
2102.87	246
2110.83	254
2118.77	254
2126.71	252
2134.63	236
2142.55	248
2150.46	240
2158.35	262
2166.24	244
2174.12	264
2181.99	250
2189.85	248
2197.7	238
2205.55	252
2213.38	226
2221.2	244
2229.02	230
2236.82	240
2244.62	260
2252.4	238
2260.18	246
2267.95	246
2275.71	232
2283.46	248
2291.2	232
2298.93	230
2306.65	246
2314.37	248
2322.07	266
2329.77	246
2337.45	258
2345.13	244
2352.8	246
2360.46	234
2368.11	264
2375.75	234
2383.38	240
2391.01	250
2398.62	256
2406.23	246
2413.82	250
2421.41	242
2428.99	236
2436.56	250
2444.12	230
2449.79	248