File: Jesse_Dataset_v2/Pure Raman/Polypropylene oxide/633nm/ps-ppo-7jan25-0,0000-map2_Y06_X01.txt
182.393	692
192.79	612
203.174	524
213.542	452
223.897	578
234.238	1274
244.566	878
254.878	460
265.178	294
275.463	294
285.734	384
295.992	656
306.236	468
316.467	362
326.684	388
336.887	416
347.075	338
357.251	344
367.413	332
377.562	316
387.697	254
397.819	222
407.926	290
418.02	342
428.101	232
438.169	202
448.223	178
458.264	186
468.291	248
478.306	414
488.307	450
498.294	238
508.269	258
518.23	310
528.177	378
538.113	794
548.034	450
557.942	524
567.838	2700
577.72	1580
587.589	596
597.446	438
607.289	246
617.119	232
626.936	268
636.741	322
646.533	234
656.313	194
666.078	182
675.831	164
685.571	176
695.299	166
705.014	186
714.716	246
724.406	214
734.082	208
743.746	282
753.398	288
763.037	190
772.664	206
782.278	234
791.879	218
801.467	200
811.044	224
820.608	246
830.16	790
839.699	394
849.226	270
858.741	228
868.243	214
877.731	188
887.209	174
896.674	184
906.128	178
915.569	168
924.997	182
934.414	214
943.818	258
953.211	550
962.59	896
971.958	448
981.314	254
990.659	230
999.99	198
1009.31	206
1018.62	228
1027.91	260
1037.2	286
1046.47	238
1055.73	192
1064.98	190
1074.22	198
1083.44	188
1092.65	212
1101.86	262
1111.05	842
1120.22	394
1129.39	272
1138.54	242
1147.69	230
1156.82	254
1165.94	276
1175.05	264
1184.14	554
1193.23	432
1202.3	468
1211.36	318
1220.41	264
1229.45	346
1238.48	270
1247.5	250
1256.5	244
1265.49	234
1274.48	262
1283.45	356
1292.41	502
1301.36	1584
1310.29	1358
1319.22	540
1328.13	446
1337.04	342
1345.93	346
1354.81	366
1363.68	310
1372.54	530
1381.38	1036
1390.22	406
1399.05	272
1407.86	280
1416.66	344
1425.46	414
1434.24	460
1443.01	510
1451.77	404
1460.52	374
1469.25	360
1477.98	362
1486.7	296
1495.4	288
1504.1	288
1512.78	284
1521.45	278
1530.11	288
1538.76	278
1547.41	284
1556.03	284
1564.65	326
1573.26	368
1581.86	488
1590.45	762
1599.02	1364
1607.59	1266
1616.14	750
1624.69	428
1633.22	294
1641.75	258
1650.26	256
1658.76	238
1667.26	252
1675.74	226
1684.21	240
1692.67	240
1701.12	248
1709.56	242
1717.99	224
1726.41	222
1734.82	226
1743.22	228
1751.61	216
1759.99	226
1768.36	220
1776.71	226
1785.06	226
1793.4	212
1801.73	222
1810.04	204
1818.35	208
1826.65	200
1834.94	224
1843.21	218
1851.48	210
1859.74	200
1867.98	212
1876.22	210
1884.45	220
1892.67	226
1900.87	216
1909.07	200
1917.26	210
1925.43	226
1933.6	214
1941.76	222
1949.91	230
1958.05	198
1966.17	222
1974.29	212
1982.4	198
1990.5	192
1998.59	208
2006.67	220
2014.74	216
2022.8	224
2030.85	214
2038.89	224
2046.92	218
2054.94	220
2062.95	208
2070.96	226
2078.95	220
2086.93	214
2094.91	214
2102.87	220
2110.83	212
2118.77	194
2126.71	212
2134.63	228
2142.55	198
2150.46	214
2158.35	214
2166.24	202
2174.12	196
2181.99	240
2189.85	214
2197.7	202
2205.55	204
2213.38	224
2221.2	218
2229.02	212
2236.82	214
2244.62	218
2252.4	192
2260.18	210
2267.95	224
2275.71	218
2283.46	218
2291.2	226
2298.93	202
2306.65	224
2314.37	232
2322.07	214
2329.77	226
2337.45	220
2345.13	206
2352.8	220
2360.46	218
2368.11	216
2375.75	212
2383.38	216
2391.01	234
2398.62	210
2406.23	218
2413.82	224
2421.41	212
2428.99	218
2436.56	200
2444.12	212
2449.79	224