File: Mixture_Classification/Jesse_Dataset_v2/Pure Raman/Polystyrene/785nm/ps-ppo-6jan25-1,0000-map3_Y06_X06.txt
204.377	828
211.048	912
217.712	896
224.369	848
231.019	714
237.661	544
244.297	380
250.924	302
257.546	284
264.16	256
270.766	254
277.365	226
283.958	198
290.543	182
297.121	178
303.693	166
310.256	176
316.813	174
323.362	170
329.905	180
336.441	172
342.969	168
349.491	152
356.006	140
362.513	150
369.014	154
375.508	176
381.994	174
388.473	190
394.947	190
401.412	214
407.871	236
414.323	198
420.768	164
427.206	150
433.637	128
440.062	136
446.479	144
452.89	114
459.293	118
465.691	116
472.081	102
478.463	100
484.84	100
491.21	102
497.573	102
503.929	120
510.279	104
516.621	118
522.957	114
529.287	128
535.609	146
541.925	158
548.234	142
554.536	132
560.832	134
567.12	136
573.403	142
579.679	112
585.948	116
592.211	104
598.466	106
604.715	138
610.958	144
617.194	332
623.424	480
629.647	150
635.864	98
642.074	92
648.276	82
654.473	72
660.664	84
666.847	78
673.025	82
679.195	72
685.36	80
691.517	78
697.669	84
703.814	104
709.953	94
716.085	96
722.21	128
728.33	124
734.443	142
740.549	186
746.65	192
752.743	208
758.831	236
764.912	230
770.986	204
777.055	208
783.117	238
789.173	304
795.222	348
801.265	270
807.302	190
813.333	166
819.357	128
825.376	106
831.387	112
837.392	138
843.392	162
849.386	128
855.372	120
861.353	124
867.328	132
873.296	120
879.258	118
885.214	122
891.164	102
897.108	118
903.046	140
908.977	150
914.903	116
920.822	92
926.735	94
932.643	94
938.543	94
944.439	98
950.328	102
956.21	100
962.088	124
967.958	116
973.824	132
979.682	180
985.534	280
991.382	770
997.222	1222
1003.06	2880
1008.89	472
1014.71	194
1020.53	218
1026.34	482
1032.14	860
1037.94	404
1043.73	206
1049.52	170
1055.3	152
1061.08	156
1066.85	172
1072.61	176
1078.37	162
1084.12	168
1089.87	168
1095.61	178
1101.34	178
1107.07	150
1112.8	126
1118.51	126
1124.22	102
1129.93	108
1135.63	112
1141.32	138
1147.01	160
1152.69	342
1158.37	334
1164.04	206
1169.71	222
1175.37	304
1181.02	514
1186.67	440
1192.31	478
1197.95	516
1203.58	452
1209.2	314
1214.82	232
1220.44	218
1226.05	190
1231.65	190
1237.25	182
1242.84	164
1248.42	172
1254	174
1259.58	168
1265.15	166
1270.71	162
1276.27	168
1281.82	174
1287.37	180
1292.91	192
1298.45	202
1303.98	210
1309.5	208
1315.02	254
1320.53	284
1326.04	302
1331.54	304
1337.04	302
1342.53	268
1348.02	260
1353.5	272
1358.98	260
1364.45	266
1369.91	280
1375.37	278
1380.82	268
1386.27	262
1391.71	238
1397.15	242
1402.58	236
1408.01	234
1413.43	224
1418.85	222
1424.26	220
1429.66	224
1435.06	246
1440.46	294
1445.85	312
1451.23	330
1456.61	282
1461.98	224
1467.35	216
1472.71	188
1478.07	188
1483.42	182
1488.77	192
1494.11	200
1499.45	186
1504.78	162
1510.11	172
1515.43	170
1520.74	178
1526.05	174
1531.36	156
1536.66	168
1541.95	164
1547.24	154
1552.52	162
1557.8	170
1563.08	178
1568.35	168
1573.61	192
1578.87	282
1584.12	400
1589.37	260
1594.61	304
1599.85	600
1605.08	566
1610.31	276
1615.53	210
1620.75	182
1625.96	158
1631.17	154
1636.37	156
1641.57	154
1646.76	164
1651.95	138
1657.13	138
1662.31	140
1667.48	126
1672.65	146
1677.81	138
1682.97	128
1688.12	134
1693.27	124
1698.41	124
1702.26	112