File: Mixture_Classification/Jesse_Dataset_v2/Pure Raman/Polystyrene/785nm/ps-ppo-6jan25-1,0000-map3_Y05_X10.txt
204.377	840
211.048	896
217.712	918
224.369	882
231.019	712
237.661	556
244.297	390
250.924	302
257.546	276
264.16	258
270.766	264
277.365	236
283.958	210
290.543	196
297.121	186
303.693	176
310.256	168
316.813	168
323.362	174
329.905	178
336.441	170
342.969	174
349.491	148
356.006	158
362.513	154
369.014	150
375.508	162
381.994	178
388.473	178
394.947	200
401.412	222
407.871	230
414.323	202
420.768	166
427.206	160
433.637	142
440.062	144
446.479	134
452.89	122
459.293	106
465.691	110
472.081	116
478.463	98
484.84	108
491.21	106
497.573	110
503.929	100
510.279	118
516.621	104
522.957	112
529.287	124
535.609	140
541.925	150
548.234	146
554.536	118
560.832	146
567.12	138
573.403	142
579.679	122
585.948	118
592.211	116
598.466	118
604.715	142
610.958	142
617.194	330
623.424	454
629.647	156
635.864	114
642.074	84
648.276	86
654.473	86
660.664	76
666.847	88
673.025	86
679.195	84
685.36	76
691.517	76
697.669	82
703.814	106
709.953	108
716.085	108
722.21	136
728.33	132
734.443	134
740.549	178
746.65	194
752.743	210
758.831	240
764.912	216
770.986	218
777.055	198
783.117	238
789.173	306
795.222	364
801.265	300
807.302	188
813.333	162
819.357	138
825.376	106
831.387	110
837.392	158
843.392	164
849.386	142
855.372	134
861.353	130
867.328	132
873.296	122
879.258	122
885.214	102
891.164	118
897.108	116
903.046	162
908.977	134
914.903	120
920.822	106
926.735	104
932.643	100
938.543	86
944.439	108
950.328	116
956.21	106
962.088	118
967.958	130
973.824	126
979.682	190
985.534	278
991.382	792
997.222	1238
1003.06	2812
1008.89	434
1014.71	194
1020.53	230
1026.34	522
1032.14	866
1037.94	408
1043.73	216
1049.52	174
1055.3	164
1061.08	150
1066.85	182
1072.61	174
1078.37	172
1084.12	172
1089.87	176
1095.61	178
1101.34	170
1107.07	144
1112.8	144
1118.51	124
1124.22	108
1129.93	110
1135.63	110
1141.32	134
1147.01	170
1152.69	346
1158.37	370
1164.04	210
1169.71	234
1175.37	306
1181.02	526
1186.67	442
1192.31	478
1197.95	498
1203.58	446
1209.2	328
1214.82	242
1220.44	220
1226.05	202
1231.65	180
1237.25	174
1242.84	164
1248.42	178
1254	172
1259.58	166
1265.15	188
1270.71	178
1276.27	172
1281.82	184
1287.37	186
1292.91	196
1298.45	218
1303.98	224
1309.5	240
1315.02	246
1320.53	284
1326.04	306
1331.54	310
1337.04	302
1342.53	296
1348.02	264
1353.5	282
1358.98	274
1364.45	290
1369.91	286
1375.37	290
1380.82	268
1386.27	262
1391.71	230
1397.15	250
1402.58	240
1408.01	234
1413.43	218
1418.85	238
1424.26	224
1429.66	242
1435.06	258
1440.46	294
1445.85	338
1451.23	326
1456.61	268
1461.98	218
1467.35	202
1472.71	184
1478.07	194
1483.42	194
1488.77	196
1494.11	212
1499.45	184
1504.78	166
1510.11	176
1515.43	166
1520.74	164
1526.05	168
1531.36	174
1536.66	166
1541.95	166
1547.24	156
1552.52	168
1557.8	176
1563.08	186
1568.35	182
1573.61	204
1578.87	282
1584.12	412
1589.37	262
1594.61	326
1599.85	630
1605.08	548
1610.31	264
1615.53	196
1620.75	184
1625.96	160
1631.17	164
1636.37	142
1641.57	164
1646.76	158
1651.95	154
1657.13	128
1662.31	136
1667.48	136
1672.65	126
1677.81	130
1682.97	134
1688.12	138
1693.27	140
1698.41	124
1702.26	120