File: Mixture_Classification/Jesse_Dataset_v2/Pure Raman/Polystyrene/785nm/ps-ppo-6jan25-1,0000-map3_Y06_X02.txt
204.377	814
211.048	854
217.712	928
224.369	882
231.019	722
237.661	526
244.297	362
250.924	308
257.546	282
264.16	254
270.766	236
277.365	230
283.958	214
290.543	194
297.121	170
303.693	164
310.256	156
316.813	178
323.362	170
329.905	166
336.441	168
342.969	158
349.491	154
356.006	154
362.513	148
369.014	142
375.508	162
381.994	164
388.473	190
394.947	180
401.412	214
407.871	230
414.323	198
420.768	168
427.206	150
433.637	144
440.062	116
446.479	130
452.89	114
459.293	108
465.691	104
472.081	116
478.463	98
484.84	98
491.21	92
497.573	98
503.929	114
510.279	104
516.621	100
522.957	108
529.287	114
535.609	140
541.925	154
548.234	146
554.536	132
560.832	136
567.12	130
573.403	146
579.679	106
585.948	114
592.211	110
598.466	110
604.715	142
610.958	134
617.194	302
623.424	460
629.647	148
635.864	102
642.074	86
648.276	80
654.473	76
660.664	74
666.847	72
673.025	78
679.195	80
685.36	70
691.517	72
697.669	78
703.814	102
709.953	98
716.085	94
722.21	138
728.33	132
734.443	132
740.549	172
746.65	176
752.743	204
758.831	222
764.912	220
770.986	210
777.055	190
783.117	244
789.173	294
795.222	354
801.265	298
807.302	196
813.333	168
819.357	126
825.376	104
831.387	114
837.392	140
843.392	148
849.386	136
855.372	122
861.353	108
867.328	116
873.296	124
879.258	124
885.214	108
891.164	116
897.108	108
903.046	136
908.977	146
914.903	116
920.822	108
926.735	90
932.643	94
938.543	104
944.439	102
950.328	92
956.21	104
962.088	122
967.958	120
973.824	138
979.682	168
985.534	276
991.382	744
997.222	1182
1003.06	2818
1008.89	446
1014.71	194
1020.53	214
1026.34	482
1032.14	902
1037.94	394
1043.73	200
1049.52	164
1055.3	140
1061.08	158
1066.85	168
1072.61	168
1078.37	156
1084.12	166
1089.87	166
1095.61	172
1101.34	168
1107.07	138
1112.8	126
1118.51	106
1124.22	104
1129.93	104
1135.63	102
1141.32	134
1147.01	166
1152.69	360
1158.37	330
1164.04	222
1169.71	220
1175.37	290
1181.02	524
1186.67	416
1192.31	462
1197.95	502
1203.58	438
1209.2	296
1214.82	234
1220.44	196
1226.05	190
1231.65	174
1237.25	160
1242.84	162
1248.42	172
1254	160
1259.58	166
1265.15	168
1270.71	170
1276.27	180
1281.82	166
1287.37	170
1292.91	192
1298.45	196
1303.98	216
1309.5	212
1315.02	228
1320.53	252
1326.04	286
1331.54	292
1337.04	270
1342.53	262
1348.02	252
1353.5	254
1358.98	264
1364.45	262
1369.91	260
1375.37	258
1380.82	264
1386.27	242
1391.71	232
1397.15	220
1402.58	220
1408.01	216
1413.43	222
1418.85	230
1424.26	216
1429.66	220
1435.06	248
1440.46	286
1445.85	312
1451.23	312
1456.61	268
1461.98	210
1467.35	184
1472.71	194
1478.07	178
1483.42	166
1488.77	166
1494.11	182
1499.45	170
1504.78	166
1510.11	164
1515.43	172
1520.74	156
1526.05	158
1531.36	162
1536.66	164
1541.95	142
1547.24	160
1552.52	150
1557.8	160
1563.08	160
1568.35	172
1573.61	206
1578.87	274
1584.12	400
1589.37	248
1594.61	322
1599.85	600
1605.08	554
1610.31	280
1615.53	192
1620.75	170
1625.96	154
1631.17	148
1636.37	148
1641.57	148
1646.76	148
1651.95	142
1657.13	134
1662.31	122
1667.48	132
1672.65	136
1677.81	132
1682.97	126
1688.12	126
1693.27	114
1698.41	128
1702.26	116