File: Mixture_Classification/Jesse_Dataset_v2/Pure Raman/Polystyrene/785nm/ps-ppo-6jan25-1,0000-map3_Y05_X05.txt
204.377	836
211.048	894
217.712	884
224.369	872
231.019	748
237.661	550
244.297	372
250.924	312
257.546	284
264.16	272
270.766	258
277.365	232
283.958	214
290.543	190
297.121	174
303.693	164
310.256	176
316.813	176
323.362	176
329.905	172
336.441	178
342.969	172
349.491	164
356.006	150
362.513	158
369.014	148
375.508	168
381.994	174
388.473	192
394.947	214
401.412	216
407.871	236
414.323	210
420.768	168
427.206	166
433.637	150
440.062	148
446.479	136
452.89	122
459.293	116
465.691	110
472.081	116
478.463	106
484.84	106
491.21	94
497.573	116
503.929	120
510.279	114
516.621	118
522.957	124
529.287	142
535.609	152
541.925	156
548.234	148
554.536	150
560.832	142
567.12	150
573.403	154
579.679	144
585.948	110
592.211	124
598.466	124
604.715	146
610.958	142
617.194	318
623.424	474
629.647	162
635.864	116
642.074	96
648.276	86
654.473	90
660.664	84
666.847	86
673.025	74
679.195	82
685.36	78
691.517	84
697.669	96
703.814	114
709.953	106
716.085	104
722.21	146
728.33	140
734.443	142
740.549	190
746.65	202
752.743	224
758.831	238
764.912	230
770.986	206
777.055	200
783.117	248
789.173	314
795.222	332
801.265	296
807.302	192
813.333	154
819.357	126
825.376	114
831.387	118
837.392	152
843.392	172
849.386	130
855.372	126
861.353	126
867.328	132
873.296	122
879.258	118
885.214	118
891.164	120
897.108	120
903.046	150
908.977	138
914.903	120
920.822	102
926.735	112
932.643	98
938.543	104
944.439	98
950.328	106
956.21	100
962.088	130
967.958	126
973.824	140
979.682	186
985.534	278
991.382	778
997.222	1214
1003.06	2868
1008.89	434
1014.71	190
1020.53	220
1026.34	498
1032.14	918
1037.94	424
1043.73	198
1049.52	158
1055.3	152
1061.08	150
1066.85	176
1072.61	180
1078.37	168
1084.12	164
1089.87	174
1095.61	178
1101.34	156
1107.07	144
1112.8	134
1118.51	128
1124.22	112
1129.93	106
1135.63	108
1141.32	130
1147.01	170
1152.69	360
1158.37	356
1164.04	210
1169.71	222
1175.37	296
1181.02	528
1186.67	432
1192.31	478
1197.95	502
1203.58	454
1209.2	316
1214.82	238
1220.44	212
1226.05	190
1231.65	182
1237.25	164
1242.84	180
1248.42	176
1254	174
1259.58	172
1265.15	178
1270.71	162
1276.27	170
1281.82	168
1287.37	176
1292.91	186
1298.45	194
1303.98	214
1309.5	232
1315.02	244
1320.53	270
1326.04	308
1331.54	286
1337.04	282
1342.53	270
1348.02	252
1353.5	264
1358.98	272
1364.45	274
1369.91	270
1375.37	258
1380.82	254
1386.27	238
1391.71	224
1397.15	242
1402.58	240
1408.01	248
1413.43	220
1418.85	220
1424.26	216
1429.66	228
1435.06	244
1440.46	270
1445.85	330
1451.23	316
1456.61	274
1461.98	212
1467.35	210
1472.71	196
1478.07	168
1483.42	188
1488.77	176
1494.11	190
1499.45	176
1504.78	176
1510.11	170
1515.43	158
1520.74	160
1526.05	160
1531.36	146
1536.66	166
1541.95	166
1547.24	154
1552.52	162
1557.8	164
1563.08	170
1568.35	182
1573.61	198
1578.87	268
1584.12	412
1589.37	248
1594.61	302
1599.85	622
1605.08	564
1610.31	284
1615.53	190
1620.75	172
1625.96	170
1631.17	152
1636.37	148
1641.57	144
1646.76	150
1651.95	148
1657.13	142
1662.31	130
1667.48	132
1672.65	130
1677.81	132
1682.97	132
1688.12	130
1693.27	124
1698.41	124
1702.26	110