File: Mixture_Classification/Jesse_Dataset_v2/Pure Raman/Polystyrene/785nm/ps-ppo-6jan25-1,0000-map3_Y08_X09.txt
204.377	860
211.048	890
217.712	890
224.369	886
231.019	700
237.661	552
244.297	380
250.924	316
257.546	302
264.16	254
270.766	246
277.365	236
283.958	212
290.543	186
297.121	190
303.693	186
310.256	176
316.813	188
323.362	186
329.905	174
336.441	180
342.969	172
349.491	158
356.006	148
362.513	158
369.014	166
375.508	164
381.994	178
388.473	196
394.947	212
401.412	218
407.871	250
414.323	206
420.768	166
427.206	156
433.637	150
440.062	140
446.479	134
452.89	116
459.293	102
465.691	116
472.081	106
478.463	110
484.84	106
491.21	112
497.573	120
503.929	118
510.279	106
516.621	116
522.957	116
529.287	132
535.609	158
541.925	152
548.234	150
554.536	150
560.832	150
567.12	136
573.403	136
579.679	128
585.948	116
592.211	110
598.466	120
604.715	138
610.958	160
617.194	324
623.424	464
629.647	150
635.864	106
642.074	102
648.276	86
654.473	88
660.664	94
666.847	84
673.025	80
679.195	84
685.36	82
691.517	84
697.669	86
703.814	102
709.953	100
716.085	102
722.21	142
728.33	130
734.443	140
740.549	184
746.65	192
752.743	216
758.831	240
764.912	224
770.986	212
777.055	204
783.117	254
789.173	300
795.222	330
801.265	292
807.302	188
813.333	162
819.357	120
825.376	118
831.387	124
837.392	148
843.392	166
849.386	130
855.372	124
861.353	126
867.328	126
873.296	110
879.258	134
885.214	98
891.164	118
897.108	126
903.046	142
908.977	152
914.903	108
920.822	112
926.735	108
932.643	90
938.543	106
944.439	112
950.328	104
956.21	100
962.088	112
967.958	130
973.824	134
979.682	192
985.534	284
991.382	800
997.222	1268
1003.06	2852
1008.89	458
1014.71	196
1020.53	218
1026.34	490
1032.14	908
1037.94	408
1043.73	206
1049.52	162
1055.3	156
1061.08	174
1066.85	172
1072.61	172
1078.37	170
1084.12	168
1089.87	168
1095.61	180
1101.34	172
1107.07	146
1112.8	144
1118.51	122
1124.22	110
1129.93	98
1135.63	118
1141.32	122
1147.01	176
1152.69	368
1158.37	330
1164.04	218
1169.71	220
1175.37	324
1181.02	528
1186.67	440
1192.31	500
1197.95	494
1203.58	448
1209.2	324
1214.82	236
1220.44	214
1226.05	208
1231.65	180
1237.25	188
1242.84	172
1248.42	166
1254	188
1259.58	172
1265.15	176
1270.71	162
1276.27	172
1281.82	190
1287.37	180
1292.91	204
1298.45	208
1303.98	234
1309.5	230
1315.02	242
1320.53	286
1326.04	274
1331.54	308
1337.04	300
1342.53	276
1348.02	276
1353.5	274
1358.98	270
1364.45	270
1369.91	296
1375.37	292
1380.82	270
1386.27	258
1391.71	248
1397.15	254
1402.58	240
1408.01	234
1413.43	232
1418.85	234
1424.26	226
1429.66	210
1435.06	264
1440.46	270
1445.85	312
1451.23	316
1456.61	282
1461.98	210
1467.35	212
1472.71	200
1478.07	198
1483.42	194
1488.77	180
1494.11	186
1499.45	176
1504.78	176
1510.11	188
1515.43	168
1520.74	162
1526.05	174
1531.36	178
1536.66	172
1541.95	172
1547.24	168
1552.52	174
1557.8	168
1563.08	170
1568.35	192
1573.61	188
1578.87	294
1584.12	410
1589.37	248
1594.61	298
1599.85	612
1605.08	548
1610.31	288
1615.53	204
1620.75	180
1625.96	170
1631.17	158
1636.37	162
1641.57	160
1646.76	160
1651.95	150
1657.13	144
1662.31	138
1667.48	134
1672.65	126
1677.81	144
1682.97	140
1688.12	124
1693.27	124
1698.41	132
1702.26	128