File: Mixture_Classification/Jesse_Dataset_v2/Pure Raman/Polystyrene/785nm/ps-ppo-6jan25-1,0000-map3_Y10_X01.txt
204.377	832
211.048	876
217.712	880
224.369	896
231.019	710
237.661	536
244.297	384
250.924	308
257.546	264
264.16	270
270.766	264
277.365	226
283.958	218
290.543	190
297.121	186
303.693	174
310.256	164
316.813	168
323.362	160
329.905	172
336.441	164
342.969	162
349.491	154
356.006	144
362.513	156
369.014	156
375.508	154
381.994	174
388.473	184
394.947	192
401.412	208
407.871	232
414.323	194
420.768	172
427.206	144
433.637	150
440.062	144
446.479	126
452.89	108
459.293	114
465.691	114
472.081	106
478.463	104
484.84	104
491.21	104
497.573	102
503.929	112
510.279	110
516.621	108
522.957	116
529.287	116
535.609	138
541.925	132
548.234	144
554.536	136
560.832	132
567.12	130
573.403	136
579.679	130
585.948	116
592.211	98
598.466	112
604.715	128
610.958	146
617.194	314
623.424	446
629.647	134
635.864	108
642.074	90
648.276	90
654.473	78
660.664	78
666.847	78
673.025	76
679.195	74
685.36	76
691.517	74
697.669	80
703.814	102
709.953	94
716.085	92
722.21	148
728.33	132
734.443	138
740.549	184
746.65	164
752.743	212
758.831	234
764.912	220
770.986	202
777.055	200
783.117	232
789.173	316
795.222	332
801.265	270
807.302	192
813.333	158
819.357	128
825.376	102
831.387	118
837.392	140
843.392	164
849.386	138
855.372	128
861.353	104
867.328	122
873.296	120
879.258	116
885.214	130
891.164	116
897.108	118
903.046	148
908.977	138
914.903	112
920.822	104
926.735	92
932.643	98
938.543	96
944.439	94
950.328	102
956.21	108
962.088	112
967.958	128
973.824	134
979.682	178
985.534	268
991.382	740
997.222	1256
1003.06	2858
1008.89	438
1014.71	190
1020.53	222
1026.34	498
1032.14	928
1037.94	414
1043.73	200
1049.52	170
1055.3	158
1061.08	158
1066.85	180
1072.61	176
1078.37	156
1084.12	176
1089.87	158
1095.61	164
1101.34	166
1107.07	154
1112.8	122
1118.51	126
1124.22	100
1129.93	102
1135.63	120
1141.32	134
1147.01	178
1152.69	358
1158.37	342
1164.04	228
1169.71	204
1175.37	292
1181.02	540
1186.67	430
1192.31	458
1197.95	506
1203.58	438
1209.2	314
1214.82	236
1220.44	198
1226.05	190
1231.65	174
1237.25	168
1242.84	176
1248.42	176
1254	176
1259.58	172
1265.15	170
1270.71	174
1276.27	162
1281.82	178
1287.37	178
1292.91	200
1298.45	200
1303.98	210
1309.5	230
1315.02	232
1320.53	270
1326.04	276
1331.54	294
1337.04	284
1342.53	284
1348.02	248
1353.5	256
1358.98	274
1364.45	266
1369.91	276
1375.37	272
1380.82	276
1386.27	240
1391.71	224
1397.15	224
1402.58	232
1408.01	226
1413.43	220
1418.85	202
1424.26	228
1429.66	220
1435.06	244
1440.46	294
1445.85	326
1451.23	318
1456.61	268
1461.98	202
1467.35	188
1472.71	178
1478.07	186
1483.42	168
1488.77	176
1494.11	184
1499.45	188
1504.78	172
1510.11	162
1515.43	172
1520.74	166
1526.05	166
1531.36	172
1536.66	154
1541.95	150
1547.24	150
1552.52	160
1557.8	170
1563.08	156
1568.35	174
1573.61	210
1578.87	270
1584.12	398
1589.37	238
1594.61	312
1599.85	608
1605.08	530
1610.31	258
1615.53	184
1620.75	188
1625.96	154
1631.17	144
1636.37	148
1641.57	154
1646.76	154
1651.95	150
1657.13	144
1662.31	116
1667.48	128
1672.65	120
1677.81	124
1682.97	130
1688.12	134
1693.27	110
1698.41	122
1702.26	126