File: Mixture_Classification/Jesse_Dataset_v2/Pure Raman/Polystyrene/785nm/ps-ppo-6jan25-1,0000-map3_Y03_X10.txt
204.377	840
211.048	888
217.712	940
224.369	866
231.019	720
237.661	568
244.297	398
250.924	308
257.546	282
264.16	266
270.766	250
277.365	244
283.958	226
290.543	188
297.121	168
303.693	160
310.256	164
316.813	168
323.362	162
329.905	176
336.441	162
342.969	168
349.491	148
356.006	146
362.513	150
369.014	148
375.508	162
381.994	170
388.473	180
394.947	174
401.412	212
407.871	228
414.323	186
420.768	170
427.206	162
433.637	136
440.062	144
446.479	144
452.89	122
459.293	110
465.691	110
472.081	104
478.463	112
484.84	90
491.21	96
497.573	106
503.929	110
510.279	104
516.621	112
522.957	116
529.287	134
535.609	128
541.925	142
548.234	136
554.536	140
560.832	134
567.12	140
573.403	144
579.679	120
585.948	118
592.211	122
598.466	118
604.715	136
610.958	140
617.194	320
623.424	466
629.647	144
635.864	106
642.074	80
648.276	80
654.473	74
660.664	86
666.847	82
673.025	76
679.195	78
685.36	82
691.517	80
697.669	86
703.814	96
709.953	88
716.085	90
722.21	146
728.33	130
734.443	128
740.549	192
746.65	178
752.743	214
758.831	228
764.912	228
770.986	194
777.055	206
783.117	234
789.173	320
795.222	342
801.265	286
807.302	196
813.333	158
819.357	124
825.376	118
831.387	114
837.392	146
843.392	152
849.386	142
855.372	120
861.353	130
867.328	128
873.296	122
879.258	118
885.214	118
891.164	104
897.108	118
903.046	136
908.977	144
914.903	126
920.822	104
926.735	94
932.643	100
938.543	100
944.439	96
950.328	102
956.21	104
962.088	114
967.958	128
973.824	132
979.682	178
985.534	258
991.382	798
997.222	1200
1003.06	2900
1008.89	456
1014.71	186
1020.53	222
1026.34	496
1032.14	908
1037.94	404
1043.73	212
1049.52	162
1055.3	154
1061.08	146
1066.85	172
1072.61	180
1078.37	178
1084.12	166
1089.87	166
1095.61	170
1101.34	172
1107.07	136
1112.8	134
1118.51	126
1124.22	118
1129.93	118
1135.63	114
1141.32	134
1147.01	180
1152.69	382
1158.37	352
1164.04	208
1169.71	208
1175.37	306
1181.02	510
1186.67	412
1192.31	490
1197.95	496
1203.58	432
1209.2	338
1214.82	242
1220.44	204
1226.05	176
1231.65	178
1237.25	180
1242.84	160
1248.42	162
1254	162
1259.58	178
1265.15	182
1270.71	164
1276.27	186
1281.82	184
1287.37	184
1292.91	204
1298.45	216
1303.98	222
1309.5	224
1315.02	244
1320.53	274
1326.04	314
1331.54	294
1337.04	308
1342.53	290
1348.02	276
1353.5	278
1358.98	274
1364.45	280
1369.91	298
1375.37	276
1380.82	268
1386.27	256
1391.71	246
1397.15	242
1402.58	256
1408.01	230
1413.43	236
1418.85	224
1424.26	236
1429.66	232
1435.06	246
1440.46	286
1445.85	334
1451.23	334
1456.61	266
1461.98	230
1467.35	202
1472.71	190
1478.07	190
1483.42	194
1488.77	196
1494.11	186
1499.45	176
1504.78	166
1510.11	178
1515.43	178
1520.74	174
1526.05	162
1531.36	180
1536.66	150
1541.95	164
1547.24	170
1552.52	172
1557.8	160
1563.08	164
1568.35	180
1573.61	198
1578.87	278
1584.12	398
1589.37	254
1594.61	308
1599.85	618
1605.08	570
1610.31	274
1615.53	200
1620.75	188
1625.96	166
1631.17	160
1636.37	154
1641.57	160
1646.76	156
1651.95	140
1657.13	134
1662.31	126
1667.48	146
1672.65	136
1677.81	134
1682.97	126
1688.12	124
1693.27	132
1698.41	126
1702.26	130