File: Mixture_Classification/Jesse_Dataset_v2/Pure Raman/Polystyrene/785nm/ps-ppo-6jan25-1,0000-map3_Y04_X08.txt
204.377	852
211.048	884
217.712	888
224.369	872
231.019	712
237.661	550
244.297	396
250.924	300
257.546	286
264.16	278
270.766	236
277.365	228
283.958	206
290.543	200
297.121	166
303.693	162
310.256	168
316.813	170
323.362	172
329.905	176
336.441	162
342.969	144
349.491	146
356.006	146
362.513	148
369.014	164
375.508	166
381.994	170
388.473	182
394.947	184
401.412	204
407.871	224
414.323	190
420.768	172
427.206	156
433.637	146
440.062	130
446.479	132
452.89	118
459.293	102
465.691	104
472.081	110
478.463	102
484.84	102
491.21	108
497.573	98
503.929	98
510.279	102
516.621	114
522.957	114
529.287	124
535.609	138
541.925	150
548.234	144
554.536	134
560.832	130
567.12	144
573.403	136
579.679	118
585.948	114
592.211	108
598.466	114
604.715	134
610.958	152
617.194	318
623.424	456
629.647	142
635.864	108
642.074	82
648.276	80
654.473	78
660.664	84
666.847	80
673.025	78
679.195	78
685.36	76
691.517	86
697.669	90
703.814	94
709.953	98
716.085	88
722.21	130
728.33	136
734.443	134
740.549	194
746.65	182
752.743	200
758.831	240
764.912	222
770.986	206
777.055	202
783.117	224
789.173	294
795.222	342
801.265	280
807.302	190
813.333	154
819.357	122
825.376	118
831.387	114
837.392	156
843.392	158
849.386	134
855.372	124
861.353	132
867.328	122
873.296	120
879.258	114
885.214	116
891.164	106
897.108	122
903.046	138
908.977	144
914.903	124
920.822	100
926.735	90
932.643	96
938.543	96
944.439	118
950.328	106
956.21	104
962.088	118
967.958	124
973.824	128
979.682	188
985.534	274
991.382	778
997.222	1196
1003.06	2836
1008.89	422
1014.71	182
1020.53	218
1026.34	486
1032.14	922
1037.94	414
1043.73	204
1049.52	174
1055.3	164
1061.08	174
1066.85	170
1072.61	176
1078.37	172
1084.12	168
1089.87	168
1095.61	156
1101.34	176
1107.07	142
1112.8	138
1118.51	118
1124.22	106
1129.93	110
1135.63	116
1141.32	130
1147.01	180
1152.69	358
1158.37	340
1164.04	210
1169.71	214
1175.37	292
1181.02	536
1186.67	450
1192.31	490
1197.95	516
1203.58	446
1209.2	322
1214.82	242
1220.44	204
1226.05	194
1231.65	190
1237.25	174
1242.84	188
1248.42	174
1254	158
1259.58	170
1265.15	182
1270.71	168
1276.27	170
1281.82	180
1287.37	192
1292.91	196
1298.45	212
1303.98	222
1309.5	224
1315.02	248
1320.53	274
1326.04	282
1331.54	304
1337.04	288
1342.53	268
1348.02	256
1353.5	280
1358.98	276
1364.45	282
1369.91	290
1375.37	286
1380.82	272
1386.27	254
1391.71	248
1397.15	258
1402.58	242
1408.01	238
1413.43	226
1418.85	218
1424.26	232
1429.66	220
1435.06	254
1440.46	272
1445.85	332
1451.23	326
1456.61	262
1461.98	226
1467.35	210
1472.71	194
1478.07	180
1483.42	178
1488.77	192
1494.11	184
1499.45	174
1504.78	184
1510.11	174
1515.43	164
1520.74	166
1526.05	172
1531.36	166
1536.66	156
1541.95	174
1547.24	172
1552.52	162
1557.8	166
1563.08	154
1568.35	182
1573.61	204
1578.87	276
1584.12	400
1589.37	248
1594.61	322
1599.85	616
1605.08	554
1610.31	290
1615.53	202
1620.75	194
1625.96	170
1631.17	150
1636.37	148
1641.57	158
1646.76	164
1651.95	148
1657.13	138
1662.31	140
1667.48	134
1672.65	138
1677.81	122
1682.97	134
1688.12	118
1693.27	122
1698.41	124
1702.26	120