File: Mixture_Classification/Jesse_Dataset_v2/Pure Raman/Polystyrene/785nm/ps-ppo-6jan25-1,0000-map3_Y08_X05.txt
204.377	824
211.048	874
217.712	912
224.369	882
231.019	738
237.661	540
244.297	414
250.924	320
257.546	296
264.16	284
270.766	252
277.365	254
283.958	228
290.543	212
297.121	188
303.693	176
310.256	172
316.813	174
323.362	186
329.905	184
336.441	172
342.969	176
349.491	164
356.006	168
362.513	158
369.014	160
375.508	178
381.994	186
388.473	182
394.947	198
401.412	230
407.871	246
414.323	200
420.768	184
427.206	170
433.637	140
440.062	146
446.479	146
452.89	126
459.293	126
465.691	108
472.081	116
478.463	114
484.84	120
491.21	98
497.573	112
503.929	130
510.279	118
516.621	120
522.957	134
529.287	134
535.609	150
541.925	154
548.234	154
554.536	140
560.832	134
567.12	148
573.403	154
579.679	122
585.948	114
592.211	120
598.466	130
604.715	146
610.958	144
617.194	322
623.424	492
629.647	166
635.864	116
642.074	98
648.276	90
654.473	94
660.664	86
666.847	80
673.025	90
679.195	78
685.36	84
691.517	88
697.669	94
703.814	102
709.953	102
716.085	108
722.21	134
728.33	140
734.443	146
740.549	196
746.65	182
752.743	212
758.831	234
764.912	200
770.986	208
777.055	200
783.117	248
789.173	314
795.222	354
801.265	298
807.302	204
813.333	162
819.357	132
825.376	112
831.387	112
837.392	138
843.392	152
849.386	132
855.372	128
861.353	132
867.328	128
873.296	120
879.258	126
885.214	118
891.164	116
897.108	134
903.046	148
908.977	140
914.903	118
920.822	104
926.735	106
932.643	102
938.543	106
944.439	102
950.328	102
956.21	112
962.088	130
967.958	134
973.824	144
979.682	180
985.534	280
991.382	786
997.222	1228
1003.06	2850
1008.89	456
1014.71	190
1020.53	226
1026.34	500
1032.14	854
1037.94	410
1043.73	208
1049.52	170
1055.3	152
1061.08	160
1066.85	168
1072.61	180
1078.37	182
1084.12	170
1089.87	174
1095.61	170
1101.34	164
1107.07	144
1112.8	128
1118.51	122
1124.22	118
1129.93	120
1135.63	122
1141.32	126
1147.01	176
1152.69	352
1158.37	336
1164.04	216
1169.71	224
1175.37	312
1181.02	526
1186.67	448
1192.31	476
1197.95	504
1203.58	448
1209.2	326
1214.82	234
1220.44	206
1226.05	192
1231.65	176
1237.25	170
1242.84	172
1248.42	180
1254	166
1259.58	178
1265.15	180
1270.71	166
1276.27	172
1281.82	180
1287.37	198
1292.91	194
1298.45	208
1303.98	210
1309.5	224
1315.02	254
1320.53	262
1326.04	296
1331.54	294
1337.04	290
1342.53	246
1348.02	270
1353.5	268
1358.98	266
1364.45	266
1369.91	290
1375.37	284
1380.82	264
1386.27	254
1391.71	244
1397.15	240
1402.58	230
1408.01	222
1413.43	212
1418.85	224
1424.26	226
1429.66	230
1435.06	252
1440.46	296
1445.85	326
1451.23	342
1456.61	256
1461.98	218
1467.35	186
1472.71	188
1478.07	186
1483.42	174
1488.77	186
1494.11	186
1499.45	174
1504.78	168
1510.11	170
1515.43	162
1520.74	166
1526.05	166
1531.36	166
1536.66	160
1541.95	168
1547.24	170
1552.52	168
1557.8	176
1563.08	166
1568.35	178
1573.61	176
1578.87	278
1584.12	406
1589.37	262
1594.61	326
1599.85	646
1605.08	562
1610.31	270
1615.53	202
1620.75	186
1625.96	174
1631.17	152
1636.37	162
1641.57	150
1646.76	146
1651.95	152
1657.13	134
1662.31	130
1667.48	136
1672.65	126
1677.81	120
1682.97	142
1688.12	132
1693.27	128
1698.41	120
1702.26	116