File: Mixture_Classification/Jesse_Dataset_v2/Pure Raman/Polystyrene/785nm/ps-ppo-6jan25-1,0000-map3_Y01_X02.txt
204.377	812
211.048	862
217.712	910
224.369	844
231.019	730
237.661	554
244.297	380
250.924	302
257.546	262
264.16	254
270.766	244
277.365	234
283.958	202
290.543	184
297.121	174
303.693	166
310.256	168
316.813	170
323.362	164
329.905	164
336.441	172
342.969	152
349.491	136
356.006	140
362.513	146
369.014	148
375.508	150
381.994	162
388.473	166
394.947	186
401.412	204
407.871	236
414.323	176
420.768	160
427.206	154
433.637	136
440.062	140
446.479	124
452.89	108
459.293	110
465.691	98
472.081	110
478.463	98
484.84	90
491.21	96
497.573	94
503.929	110
510.279	104
516.621	94
522.957	102
529.287	120
535.609	130
541.925	140
548.234	140
554.536	138
560.832	134
567.12	134
573.403	136
579.679	130
585.948	112
592.211	98
598.466	106
604.715	122
610.958	160
617.194	284
623.424	454
629.647	142
635.864	114
642.074	92
648.276	78
654.473	82
660.664	72
666.847	76
673.025	76
679.195	72
685.36	74
691.517	72
697.669	84
703.814	100
709.953	94
716.085	94
722.21	122
728.33	120
734.443	124
740.549	188
746.65	184
752.743	210
758.831	224
764.912	210
770.986	204
777.055	192
783.117	220
789.173	306
795.222	332
801.265	292
807.302	194
813.333	152
819.357	120
825.376	116
831.387	102
837.392	146
843.392	158
849.386	134
855.372	120
861.353	124
867.328	124
873.296	116
879.258	108
885.214	116
891.164	110
897.108	120
903.046	138
908.977	142
914.903	118
920.822	102
926.735	102
932.643	96
938.543	98
944.439	102
950.328	94
956.21	108
962.088	118
967.958	122
973.824	130
979.682	174
985.534	268
991.382	746
997.222	1176
1003.06	2866
1008.89	438
1014.71	206
1020.53	210
1026.34	484
1032.14	898
1037.94	428
1043.73	208
1049.52	160
1055.3	148
1061.08	146
1066.85	180
1072.61	174
1078.37	164
1084.12	162
1089.87	166
1095.61	170
1101.34	164
1107.07	142
1112.8	132
1118.51	116
1124.22	106
1129.93	92
1135.63	118
1141.32	120
1147.01	170
1152.69	344
1158.37	320
1164.04	212
1169.71	186
1175.37	314
1181.02	488
1186.67	440
1192.31	488
1197.95	514
1203.58	440
1209.2	314
1214.82	216
1220.44	206
1226.05	194
1231.65	176
1237.25	170
1242.84	170
1248.42	176
1254	164
1259.58	158
1265.15	156
1270.71	174
1276.27	160
1281.82	172
1287.37	176
1292.91	194
1298.45	212
1303.98	202
1309.5	224
1315.02	240
1320.53	270
1326.04	268
1331.54	290
1337.04	278
1342.53	262
1348.02	272
1353.5	262
1358.98	268
1364.45	276
1369.91	278
1375.37	264
1380.82	268
1386.27	244
1391.71	244
1397.15	242
1402.58	224
1408.01	226
1413.43	218
1418.85	234
1424.26	214
1429.66	214
1435.06	236
1440.46	270
1445.85	304
1451.23	320
1456.61	272
1461.98	218
1467.35	192
1472.71	176
1478.07	190
1483.42	180
1488.77	172
1494.11	180
1499.45	178
1504.78	162
1510.11	152
1515.43	152
1520.74	168
1526.05	160
1531.36	156
1536.66	154
1541.95	154
1547.24	146
1552.52	150
1557.8	140
1563.08	168
1568.35	166
1573.61	182
1578.87	254
1584.12	400
1589.37	244
1594.61	296
1599.85	596
1605.08	554
1610.31	268
1615.53	202
1620.75	170
1625.96	156
1631.17	142
1636.37	152
1641.57	152
1646.76	136
1651.95	144
1657.13	140
1662.31	124
1667.48	122
1672.65	134
1677.81	134
1682.97	120
1688.12	130
1693.27	128
1698.41	110
1702.26	114