File: Mixture_Classification/Jesse_Dataset_v2/Pure Raman/Polystyrene/785nm/ps-ppo-6jan25-1,0000-map3_Y00_X08.txt
204.377	816
211.048	904
217.712	910
224.369	900
231.019	740
237.661	554
244.297	416
250.924	316
257.546	258
264.16	272
270.766	248
277.365	220
283.958	210
290.543	190
297.121	180
303.693	162
310.256	166
316.813	166
323.362	160
329.905	156
336.441	152
342.969	170
349.491	166
356.006	144
362.513	162
369.014	154
375.508	164
381.994	166
388.473	184
394.947	206
401.412	216
407.871	236
414.323	192
420.768	168
427.206	154
433.637	136
440.062	142
446.479	130
452.89	122
459.293	108
465.691	104
472.081	98
478.463	102
484.84	102
491.21	94
497.573	106
503.929	112
510.279	102
516.621	108
522.957	112
529.287	126
535.609	142
541.925	144
548.234	128
554.536	128
560.832	140
567.12	128
573.403	124
579.679	122
585.948	116
592.211	114
598.466	118
604.715	132
610.958	148
617.194	320
623.424	458
629.647	142
635.864	114
642.074	86
648.276	78
654.473	82
660.664	72
666.847	80
673.025	76
679.195	74
685.36	74
691.517	78
697.669	92
703.814	96
709.953	102
716.085	96
722.21	134
728.33	140
734.443	128
740.549	180
746.65	172
752.743	196
758.831	242
764.912	222
770.986	200
777.055	200
783.117	238
789.173	314
795.222	338
801.265	284
807.302	186
813.333	154
819.357	120
825.376	116
831.387	116
837.392	138
843.392	138
849.386	128
855.372	122
861.353	118
867.328	122
873.296	128
879.258	128
885.214	112
891.164	112
897.108	126
903.046	142
908.977	148
914.903	120
920.822	102
926.735	92
932.643	96
938.543	92
944.439	104
950.328	104
956.21	108
962.088	118
967.958	128
973.824	132
979.682	192
985.534	290
991.382	752
997.222	1200
1003.06	2940
1008.89	456
1014.71	200
1020.53	214
1026.34	488
1032.14	902
1037.94	414
1043.73	210
1049.52	152
1055.3	154
1061.08	164
1066.85	186
1072.61	178
1078.37	168
1084.12	160
1089.87	150
1095.61	172
1101.34	170
1107.07	148
1112.8	130
1118.51	114
1124.22	114
1129.93	108
1135.63	104
1141.32	130
1147.01	170
1152.69	350
1158.37	344
1164.04	234
1169.71	208
1175.37	296
1181.02	516
1186.67	432
1192.31	470
1197.95	510
1203.58	444
1209.2	322
1214.82	234
1220.44	210
1226.05	192
1231.65	168
1237.25	176
1242.84	158
1248.42	172
1254	178
1259.58	170
1265.15	160
1270.71	166
1276.27	170
1281.82	160
1287.37	180
1292.91	200
1298.45	214
1303.98	204
1309.5	220
1315.02	250
1320.53	292
1326.04	294
1331.54	294
1337.04	282
1342.53	274
1348.02	256
1353.5	282
1358.98	276
1364.45	286
1369.91	300
1375.37	276
1380.82	264
1386.27	248
1391.71	252
1397.15	244
1402.58	234
1408.01	224
1413.43	230
1418.85	220
1424.26	236
1429.66	232
1435.06	252
1440.46	292
1445.85	346
1451.23	334
1456.61	268
1461.98	224
1467.35	208
1472.71	196
1478.07	182
1483.42	176
1488.77	182
1494.11	188
1499.45	178
1504.78	162
1510.11	162
1515.43	164
1520.74	162
1526.05	162
1531.36	158
1536.66	156
1541.95	162
1547.24	166
1552.52	162
1557.8	174
1563.08	156
1568.35	182
1573.61	196
1578.87	274
1584.12	400
1589.37	240
1594.61	302
1599.85	608
1605.08	562
1610.31	274
1615.53	212
1620.75	174
1625.96	162
1631.17	154
1636.37	154
1641.57	144
1646.76	150
1651.95	136
1657.13	136
1662.31	132
1667.48	140
1672.65	126
1677.81	124
1682.97	148
1688.12	136
1693.27	132
1698.41	114
1702.26	120