File: Mixture_Classification/Jesse_Dataset_v2/Pure Raman/Polystyrene/785nm/ps-ppo-6jan25-1,0000-map3_Y03_X05.txt
204.377	832
211.048	890
217.712	904
224.369	886
231.019	716
237.661	552
244.297	366
250.924	302
257.546	258
264.16	258
270.766	246
277.365	232
283.958	204
290.543	186
297.121	156
303.693	154
310.256	156
316.813	164
323.362	166
329.905	148
336.441	164
342.969	158
349.491	148
356.006	148
362.513	146
369.014	148
375.508	148
381.994	156
388.473	174
394.947	190
401.412	218
407.871	232
414.323	182
420.768	162
427.206	154
433.637	138
440.062	130
446.479	118
452.89	106
459.293	104
465.691	92
472.081	98
478.463	98
484.84	84
491.21	92
497.573	98
503.929	108
510.279	106
516.621	106
522.957	110
529.287	120
535.609	142
541.925	152
548.234	140
554.536	128
560.832	126
567.12	132
573.403	138
579.679	130
585.948	110
592.211	110
598.466	110
604.715	128
610.958	140
617.194	308
623.424	442
629.647	150
635.864	98
642.074	84
648.276	70
654.473	74
660.664	74
666.847	68
673.025	74
679.195	70
685.36	74
691.517	72
697.669	82
703.814	96
709.953	100
716.085	94
722.21	126
728.33	124
734.443	124
740.549	172
746.65	176
752.743	202
758.831	234
764.912	208
770.986	200
777.055	202
783.117	248
789.173	280
795.222	344
801.265	290
807.302	196
813.333	160
819.357	126
825.376	106
831.387	108
837.392	138
843.392	152
849.386	134
855.372	126
861.353	124
867.328	114
873.296	124
879.258	112
885.214	110
891.164	106
897.108	122
903.046	140
908.977	134
914.903	112
920.822	106
926.735	92
932.643	94
938.543	90
944.439	106
950.328	94
956.21	104
962.088	116
967.958	128
973.824	134
979.682	182
985.534	256
991.382	770
997.222	1226
1003.06	2832
1008.89	434
1014.71	180
1020.53	224
1026.34	498
1032.14	902
1037.94	414
1043.73	202
1049.52	170
1055.3	156
1061.08	164
1066.85	174
1072.61	176
1078.37	176
1084.12	164
1089.87	168
1095.61	170
1101.34	152
1107.07	144
1112.8	114
1118.51	122
1124.22	112
1129.93	102
1135.63	110
1141.32	120
1147.01	166
1152.69	350
1158.37	340
1164.04	222
1169.71	208
1175.37	276
1181.02	538
1186.67	432
1192.31	490
1197.95	492
1203.58	450
1209.2	304
1214.82	246
1220.44	204
1226.05	198
1231.65	182
1237.25	162
1242.84	174
1248.42	164
1254	168
1259.58	160
1265.15	178
1270.71	164
1276.27	160
1281.82	182
1287.37	184
1292.91	198
1298.45	190
1303.98	228
1309.5	224
1315.02	232
1320.53	268
1326.04	302
1331.54	306
1337.04	280
1342.53	268
1348.02	266
1353.5	256
1358.98	248
1364.45	276
1369.91	272
1375.37	272
1380.82	258
1386.27	246
1391.71	224
1397.15	238
1402.58	228
1408.01	236
1413.43	224
1418.85	212
1424.26	218
1429.66	228
1435.06	246
1440.46	270
1445.85	334
1451.23	320
1456.61	258
1461.98	212
1467.35	192
1472.71	170
1478.07	174
1483.42	176
1488.77	180
1494.11	180
1499.45	162
1504.78	150
1510.11	172
1515.43	180
1520.74	164
1526.05	164
1531.36	152
1536.66	154
1541.95	156
1547.24	158
1552.52	156
1557.8	158
1563.08	162
1568.35	170
1573.61	188
1578.87	274
1584.12	416
1589.37	246
1594.61	318
1599.85	632
1605.08	556
1610.31	270
1615.53	204
1620.75	182
1625.96	162
1631.17	136
1636.37	156
1641.57	138
1646.76	154
1651.95	140
1657.13	144
1662.31	128
1667.48	130
1672.65	128
1677.81	124
1682.97	120
1688.12	128
1693.27	126
1698.41	120
1702.26	118