File: Mixture_Classification/Jesse_Dataset_v2/Pure Raman/Polystyrene/785nm/ps-ppo-6jan25-1,0000-map3_Y05_X07.txt
204.377	840
211.048	862
217.712	914
224.369	874
231.019	712
237.661	542
244.297	378
250.924	310
257.546	280
264.16	264
270.766	246
277.365	224
283.958	198
290.543	198
297.121	174
303.693	162
310.256	158
316.813	160
323.362	174
329.905	170
336.441	156
342.969	158
349.491	160
356.006	154
362.513	146
369.014	160
375.508	154
381.994	158
388.473	190
394.947	190
401.412	202
407.871	224
414.323	208
420.768	164
427.206	148
433.637	158
440.062	136
446.479	130
452.89	118
459.293	108
465.691	104
472.081	108
478.463	106
484.84	96
491.21	94
497.573	108
503.929	112
510.279	110
516.621	102
522.957	116
529.287	124
535.609	144
541.925	166
548.234	136
554.536	146
560.832	138
567.12	136
573.403	134
579.679	126
585.948	122
592.211	114
598.466	112
604.715	120
610.958	146
617.194	344
623.424	484
629.647	152
635.864	104
642.074	92
648.276	80
654.473	82
660.664	82
666.847	74
673.025	70
679.195	68
685.36	74
691.517	68
697.669	96
703.814	104
709.953	98
716.085	98
722.21	130
728.33	128
734.443	126
740.549	186
746.65	200
752.743	210
758.831	240
764.912	218
770.986	196
777.055	196
783.117	248
789.173	284
795.222	348
801.265	270
807.302	200
813.333	164
819.357	126
825.376	114
831.387	106
837.392	158
843.392	154
849.386	130
855.372	132
861.353	126
867.328	118
873.296	124
879.258	116
885.214	114
891.164	114
897.108	112
903.046	136
908.977	136
914.903	114
920.822	100
926.735	102
932.643	94
938.543	88
944.439	100
950.328	102
956.21	102
962.088	118
967.958	134
973.824	138
979.682	172
985.534	276
991.382	782
997.222	1242
1003.06	2904
1008.89	434
1014.71	166
1020.53	218
1026.34	492
1032.14	902
1037.94	408
1043.73	210
1049.52	162
1055.3	154
1061.08	162
1066.85	174
1072.61	186
1078.37	178
1084.12	156
1089.87	170
1095.61	182
1101.34	158
1107.07	148
1112.8	118
1118.51	122
1124.22	108
1129.93	108
1135.63	112
1141.32	132
1147.01	176
1152.69	350
1158.37	332
1164.04	220
1169.71	242
1175.37	292
1181.02	518
1186.67	454
1192.31	476
1197.95	504
1203.58	448
1209.2	318
1214.82	228
1220.44	202
1226.05	196
1231.65	170
1237.25	180
1242.84	160
1248.42	162
1254	156
1259.58	168
1265.15	180
1270.71	178
1276.27	174
1281.82	184
1287.37	180
1292.91	196
1298.45	198
1303.98	208
1309.5	232
1315.02	238
1320.53	284
1326.04	300
1331.54	304
1337.04	294
1342.53	274
1348.02	264
1353.5	274
1358.98	284
1364.45	296
1369.91	290
1375.37	288
1380.82	270
1386.27	256
1391.71	244
1397.15	242
1402.58	232
1408.01	240
1413.43	220
1418.85	230
1424.26	194
1429.66	226
1435.06	262
1440.46	284
1445.85	344
1451.23	330
1456.61	274
1461.98	218
1467.35	204
1472.71	198
1478.07	190
1483.42	184
1488.77	180
1494.11	180
1499.45	178
1504.78	174
1510.11	158
1515.43	168
1520.74	182
1526.05	164
1531.36	172
1536.66	176
1541.95	168
1547.24	168
1552.52	168
1557.8	164
1563.08	164
1568.35	164
1573.61	202
1578.87	272
1584.12	402
1589.37	248
1594.61	328
1599.85	628
1605.08	552
1610.31	274
1615.53	194
1620.75	186
1625.96	158
1631.17	148
1636.37	150
1641.57	166
1646.76	160
1651.95	154
1657.13	146
1662.31	142
1667.48	144
1672.65	140
1677.81	134
1682.97	130
1688.12	126
1693.27	130
1698.41	118
1702.26	118