File: Mixture_Classification/Jesse_Dataset_v2/Pure Raman/Polystyrene/785nm/ps-ppo-6jan25-1,0000-map3_Y05_X02.txt
204.377	842
211.048	900
217.712	924
224.369	906
231.019	732
237.661	544
244.297	392
250.924	312
257.546	288
264.16	268
270.766	252
277.365	244
283.958	220
290.543	192
297.121	184
303.693	184
310.256	172
316.813	174
323.362	174
329.905	178
336.441	164
342.969	164
349.491	168
356.006	160
362.513	170
369.014	160
375.508	158
381.994	172
388.473	192
394.947	192
401.412	210
407.871	222
414.323	206
420.768	182
427.206	160
433.637	148
440.062	140
446.479	144
452.89	122
459.293	126
465.691	118
472.081	116
478.463	98
484.84	112
491.21	102
497.573	114
503.929	118
510.279	102
516.621	116
522.957	128
529.287	134
535.609	136
541.925	146
548.234	152
554.536	142
560.832	136
567.12	134
573.403	142
579.679	122
585.948	116
592.211	116
598.466	118
604.715	134
610.958	146
617.194	326
623.424	474
629.647	152
635.864	108
642.074	94
648.276	86
654.473	90
660.664	84
666.847	82
673.025	88
679.195	88
685.36	84
691.517	82
697.669	90
703.814	100
709.953	110
716.085	104
722.21	146
728.33	142
734.443	134
740.549	186
746.65	192
752.743	210
758.831	232
764.912	220
770.986	216
777.055	206
783.117	252
789.173	310
795.222	356
801.265	290
807.302	188
813.333	160
819.357	130
825.376	112
831.387	112
837.392	158
843.392	164
849.386	154
855.372	132
861.353	134
867.328	128
873.296	122
879.258	120
885.214	118
891.164	116
897.108	120
903.046	142
908.977	152
914.903	122
920.822	114
926.735	98
932.643	102
938.543	110
944.439	112
950.328	102
956.21	112
962.088	122
967.958	128
973.824	130
979.682	196
985.534	280
991.382	768
997.222	1222
1003.06	2890
1008.89	450
1014.71	196
1020.53	212
1026.34	480
1032.14	910
1037.94	388
1043.73	200
1049.52	164
1055.3	158
1061.08	166
1066.85	178
1072.61	178
1078.37	174
1084.12	154
1089.87	168
1095.61	168
1101.34	174
1107.07	154
1112.8	126
1118.51	126
1124.22	98
1129.93	104
1135.63	110
1141.32	132
1147.01	178
1152.69	358
1158.37	344
1164.04	214
1169.71	222
1175.37	312
1181.02	522
1186.67	454
1192.31	478
1197.95	508
1203.58	426
1209.2	314
1214.82	240
1220.44	202
1226.05	192
1231.65	182
1237.25	170
1242.84	174
1248.42	174
1254	158
1259.58	170
1265.15	160
1270.71	166
1276.27	168
1281.82	168
1287.37	188
1292.91	188
1298.45	196
1303.98	214
1309.5	234
1315.02	252
1320.53	270
1326.04	284
1331.54	300
1337.04	290
1342.53	272
1348.02	250
1353.5	268
1358.98	270
1364.45	264
1369.91	284
1375.37	272
1380.82	266
1386.27	248
1391.71	248
1397.15	234
1402.58	218
1408.01	214
1413.43	222
1418.85	218
1424.26	208
1429.66	206
1435.06	250
1440.46	278
1445.85	316
1451.23	332
1456.61	278
1461.98	210
1467.35	184
1472.71	186
1478.07	170
1483.42	182
1488.77	178
1494.11	188
1499.45	166
1504.78	162
1510.11	182
1515.43	150
1520.74	166
1526.05	150
1531.36	162
1536.66	166
1541.95	152
1547.24	166
1552.52	162
1557.8	154
1563.08	164
1568.35	160
1573.61	202
1578.87	254
1584.12	406
1589.37	242
1594.61	306
1599.85	600
1605.08	558
1610.31	276
1615.53	202
1620.75	176
1625.96	154
1631.17	142
1636.37	152
1641.57	160
1646.76	142
1651.95	150
1657.13	140
1662.31	128
1667.48	124
1672.65	142
1677.81	132
1682.97	130
1688.12	132
1693.27	122
1698.41	116
1702.26	124