File: Mixture_Classification/Jesse_Dataset_v2/Pure Raman/Polystyrene/785nm/ps-ppo-6jan25-1,0000-map3_Y02_X02.txt
204.377	822
211.048	874
217.712	902
224.369	866
231.019	718
237.661	536
244.297	376
250.924	300
257.546	280
264.16	238
270.766	234
277.365	236
283.958	200
290.543	196
297.121	184
303.693	164
310.256	176
316.813	162
323.362	168
329.905	166
336.441	162
342.969	156
349.491	136
356.006	144
362.513	142
369.014	154
375.508	156
381.994	164
388.473	190
394.947	186
401.412	208
407.871	218
414.323	194
420.768	158
427.206	142
433.637	132
440.062	138
446.479	120
452.89	120
459.293	98
465.691	102
472.081	102
478.463	98
484.84	92
491.21	98
497.573	102
503.929	112
510.279	100
516.621	108
522.957	110
529.287	118
535.609	138
541.925	136
548.234	130
554.536	132
560.832	138
567.12	134
573.403	144
579.679	116
585.948	102
592.211	106
598.466	114
604.715	126
610.958	134
617.194	322
623.424	438
629.647	140
635.864	102
642.074	88
648.276	78
654.473	76
660.664	70
666.847	72
673.025	74
679.195	86
685.36	64
691.517	78
697.669	82
703.814	92
709.953	90
716.085	94
722.21	136
728.33	130
734.443	132
740.549	170
746.65	188
752.743	218
758.831	230
764.912	222
770.986	190
777.055	194
783.117	236
789.173	312
795.222	344
801.265	256
807.302	198
813.333	152
819.357	120
825.376	108
831.387	114
837.392	146
843.392	148
849.386	134
855.372	104
861.353	120
867.328	126
873.296	124
879.258	126
885.214	106
891.164	110
897.108	120
903.046	132
908.977	138
914.903	118
920.822	92
926.735	106
932.643	90
938.543	94
944.439	100
950.328	100
956.21	98
962.088	122
967.958	120
973.824	144
979.682	186
985.534	278
991.382	724
997.222	1190
1003.06	2924
1008.89	440
1014.71	180
1020.53	212
1026.34	514
1032.14	888
1037.94	420
1043.73	194
1049.52	168
1055.3	160
1061.08	142
1066.85	160
1072.61	182
1078.37	170
1084.12	160
1089.87	162
1095.61	178
1101.34	164
1107.07	144
1112.8	126
1118.51	116
1124.22	108
1129.93	98
1135.63	110
1141.32	136
1147.01	184
1152.69	344
1158.37	324
1164.04	204
1169.71	212
1175.37	294
1181.02	540
1186.67	438
1192.31	474
1197.95	514
1203.58	430
1209.2	318
1214.82	216
1220.44	200
1226.05	204
1231.65	170
1237.25	168
1242.84	164
1248.42	162
1254	168
1259.58	154
1265.15	174
1270.71	168
1276.27	160
1281.82	164
1287.37	180
1292.91	190
1298.45	208
1303.98	212
1309.5	216
1315.02	242
1320.53	272
1326.04	302
1331.54	274
1337.04	280
1342.53	264
1348.02	246
1353.5	250
1358.98	256
1364.45	258
1369.91	280
1375.37	272
1380.82	250
1386.27	234
1391.71	226
1397.15	212
1402.58	224
1408.01	214
1413.43	222
1418.85	214
1424.26	204
1429.66	218
1435.06	266
1440.46	286
1445.85	306
1451.23	306
1456.61	252
1461.98	186
1467.35	174
1472.71	188
1478.07	176
1483.42	176
1488.77	144
1494.11	174
1499.45	170
1504.78	162
1510.11	156
1515.43	160
1520.74	162
1526.05	150
1531.36	156
1536.66	164
1541.95	154
1547.24	156
1552.52	156
1557.8	144
1563.08	152
1568.35	172
1573.61	190
1578.87	262
1584.12	400
1589.37	264
1594.61	306
1599.85	610
1605.08	556
1610.31	254
1615.53	192
1620.75	176
1625.96	160
1631.17	160
1636.37	146
1641.57	148
1646.76	156
1651.95	138
1657.13	128
1662.31	120
1667.48	136
1672.65	130
1677.81	134
1682.97	124
1688.12	126
1693.27	114
1698.41	124
1702.26	112