File: Mixture_Classification/Jesse_Dataset_v2/Pure Raman/Polystyrene/785nm/ps-ppo-6jan25-1,0000-map3_Y02_X00.txt
204.377	838
211.048	878
217.712	904
224.369	846
231.019	708
237.661	548
244.297	402
250.924	320
257.546	280
264.16	262
270.766	250
277.365	248
283.958	218
290.543	186
297.121	166
303.693	164
310.256	164
316.813	174
323.362	176
329.905	162
336.441	172
342.969	164
349.491	146
356.006	144
362.513	156
369.014	150
375.508	170
381.994	174
388.473	168
394.947	188
401.412	202
407.871	216
414.323	200
420.768	158
427.206	148
433.637	140
440.062	122
446.479	134
452.89	116
459.293	104
465.691	104
472.081	108
478.463	104
484.84	96
491.21	90
497.573	96
503.929	114
510.279	102
516.621	112
522.957	112
529.287	126
535.609	138
541.925	148
548.234	142
554.536	136
560.832	130
567.12	124
573.403	140
579.679	112
585.948	108
592.211	104
598.466	116
604.715	128
610.958	150
617.194	310
623.424	460
629.647	146
635.864	100
642.074	96
648.276	90
654.473	82
660.664	82
666.847	84
673.025	74
679.195	76
685.36	76
691.517	74
697.669	84
703.814	104
709.953	100
716.085	94
722.21	130
728.33	136
734.443	134
740.549	170
746.65	168
752.743	208
758.831	248
764.912	222
770.986	202
777.055	200
783.117	230
789.173	296
795.222	336
801.265	274
807.302	202
813.333	164
819.357	124
825.376	112
831.387	118
837.392	140
843.392	160
849.386	134
855.372	130
861.353	130
867.328	120
873.296	122
879.258	120
885.214	118
891.164	110
897.108	122
903.046	136
908.977	146
914.903	112
920.822	96
926.735	96
932.643	96
938.543	94
944.439	102
950.328	98
956.21	106
962.088	120
967.958	130
973.824	138
979.682	184
985.534	262
991.382	722
997.222	1174
1003.06	2882
1008.89	450
1014.71	192
1020.53	216
1026.34	492
1032.14	880
1037.94	410
1043.73	198
1049.52	152
1055.3	146
1061.08	156
1066.85	162
1072.61	166
1078.37	158
1084.12	170
1089.87	176
1095.61	162
1101.34	166
1107.07	146
1112.8	130
1118.51	124
1124.22	110
1129.93	108
1135.63	112
1141.32	136
1147.01	166
1152.69	368
1158.37	346
1164.04	218
1169.71	216
1175.37	292
1181.02	512
1186.67	410
1192.31	480
1197.95	488
1203.58	432
1209.2	328
1214.82	228
1220.44	196
1226.05	204
1231.65	178
1237.25	152
1242.84	166
1248.42	154
1254	160
1259.58	170
1265.15	174
1270.71	174
1276.27	162
1281.82	176
1287.37	184
1292.91	196
1298.45	192
1303.98	214
1309.5	214
1315.02	236
1320.53	260
1326.04	270
1331.54	284
1337.04	270
1342.53	252
1348.02	260
1353.5	254
1358.98	254
1364.45	262
1369.91	268
1375.37	260
1380.82	248
1386.27	242
1391.71	216
1397.15	224
1402.58	224
1408.01	214
1413.43	206
1418.85	202
1424.26	210
1429.66	206
1435.06	230
1440.46	260
1445.85	326
1451.23	336
1456.61	268
1461.98	202
1467.35	172
1472.71	182
1478.07	180
1483.42	166
1488.77	176
1494.11	176
1499.45	162
1504.78	152
1510.11	166
1515.43	162
1520.74	156
1526.05	172
1531.36	150
1536.66	154
1541.95	148
1547.24	144
1552.52	164
1557.8	160
1563.08	152
1568.35	162
1573.61	190
1578.87	270
1584.12	384
1589.37	222
1594.61	282
1599.85	630
1605.08	546
1610.31	264
1615.53	194
1620.75	170
1625.96	154
1631.17	148
1636.37	128
1641.57	150
1646.76	146
1651.95	132
1657.13	132
1662.31	120
1667.48	126
1672.65	124
1677.81	122
1682.97	120
1688.12	120
1693.27	122
1698.41	116
1702.26	114