File: Mixture_Classification/Jesse_Dataset_v2/Pure Raman/Polystyrene/785nm/ps-ppo-6jan25-1,0000-map3_Y03_X07.txt
204.377	846
211.048	890
217.712	936
224.369	868
231.019	732
237.661	540
244.297	366
250.924	306
257.546	258
264.16	256
270.766	238
277.365	234
283.958	206
290.543	198
297.121	180
303.693	162
310.256	166
316.813	144
323.362	178
329.905	160
336.441	158
342.969	150
349.491	154
356.006	142
362.513	148
369.014	144
375.508	164
381.994	168
388.473	178
394.947	188
401.412	206
407.871	246
414.323	188
420.768	166
427.206	154
433.637	140
440.062	140
446.479	126
452.89	118
459.293	110
465.691	100
472.081	106
478.463	92
484.84	96
491.21	98
497.573	106
503.929	108
510.279	96
516.621	112
522.957	110
529.287	120
535.609	136
541.925	148
548.234	138
554.536	140
560.832	136
567.12	134
573.403	142
579.679	118
585.948	114
592.211	106
598.466	106
604.715	136
610.958	156
617.194	302
623.424	482
629.647	150
635.864	108
642.074	80
648.276	80
654.473	66
660.664	74
666.847	70
673.025	72
679.195	78
685.36	70
691.517	70
697.669	90
703.814	100
709.953	90
716.085	90
722.21	124
728.33	124
734.443	134
740.549	184
746.65	184
752.743	204
758.831	224
764.912	230
770.986	204
777.055	202
783.117	234
789.173	316
795.222	344
801.265	294
807.302	206
813.333	154
819.357	128
825.376	106
831.387	116
837.392	140
843.392	156
849.386	132
855.372	130
861.353	122
867.328	120
873.296	124
879.258	116
885.214	110
891.164	108
897.108	114
903.046	130
908.977	132
914.903	118
920.822	106
926.735	100
932.643	96
938.543	98
944.439	94
950.328	100
956.21	92
962.088	114
967.958	128
973.824	132
979.682	166
985.534	266
991.382	786
997.222	1220
1003.06	2914
1008.89	450
1014.71	200
1020.53	214
1026.34	502
1032.14	906
1037.94	378
1043.73	198
1049.52	170
1055.3	146
1061.08	152
1066.85	164
1072.61	172
1078.37	170
1084.12	160
1089.87	168
1095.61	174
1101.34	176
1107.07	136
1112.8	120
1118.51	122
1124.22	108
1129.93	104
1135.63	108
1141.32	132
1147.01	176
1152.69	366
1158.37	344
1164.04	218
1169.71	208
1175.37	278
1181.02	522
1186.67	428
1192.31	486
1197.95	470
1203.58	432
1209.2	302
1214.82	232
1220.44	190
1226.05	190
1231.65	172
1237.25	160
1242.84	170
1248.42	174
1254	160
1259.58	164
1265.15	160
1270.71	168
1276.27	188
1281.82	180
1287.37	184
1292.91	198
1298.45	200
1303.98	214
1309.5	224
1315.02	240
1320.53	264
1326.04	306
1331.54	306
1337.04	284
1342.53	268
1348.02	262
1353.5	254
1358.98	282
1364.45	276
1369.91	286
1375.37	288
1380.82	276
1386.27	240
1391.71	238
1397.15	238
1402.58	244
1408.01	228
1413.43	226
1418.85	226
1424.26	210
1429.66	230
1435.06	250
1440.46	280
1445.85	318
1451.23	342
1456.61	282
1461.98	204
1467.35	204
1472.71	200
1478.07	186
1483.42	180
1488.77	186
1494.11	198
1499.45	166
1504.78	180
1510.11	184
1515.43	164
1520.74	156
1526.05	166
1531.36	176
1536.66	166
1541.95	162
1547.24	166
1552.52	170
1557.8	152
1563.08	172
1568.35	164
1573.61	184
1578.87	272
1584.12	386
1589.37	242
1594.61	296
1599.85	606
1605.08	560
1610.31	286
1615.53	196
1620.75	172
1625.96	156
1631.17	146
1636.37	152
1641.57	150
1646.76	156
1651.95	140
1657.13	140
1662.31	130
1667.48	134
1672.65	138
1677.81	124
1682.97	128
1688.12	128
1693.27	130
1698.41	130
1702.26	124