File: Mixture_Classification/Jesse_Dataset_v2/Pure Raman/Polystyrene/785nm/ps-ppo-6jan25-1,0000-map3_Y08_X04.txt
204.377	826
211.048	900
217.712	906
224.369	896
231.019	710
237.661	538
244.297	392
250.924	314
257.546	276
264.16	264
270.766	244
277.365	218
283.958	224
290.543	192
297.121	168
303.693	164
310.256	170
316.813	186
323.362	178
329.905	162
336.441	174
342.969	164
349.491	156
356.006	144
362.513	150
369.014	154
375.508	170
381.994	174
388.473	190
394.947	194
401.412	214
407.871	232
414.323	204
420.768	164
427.206	156
433.637	148
440.062	142
446.479	128
452.89	118
459.293	106
465.691	106
472.081	106
478.463	100
484.84	98
491.21	100
497.573	100
503.929	114
510.279	112
516.621	112
522.957	104
529.287	130
535.609	136
541.925	144
548.234	140
554.536	148
560.832	142
567.12	132
573.403	142
579.679	112
585.948	116
592.211	110
598.466	118
604.715	138
610.958	156
617.194	324
623.424	456
629.647	154
635.864	104
642.074	80
648.276	80
654.473	80
660.664	84
666.847	70
673.025	68
679.195	72
685.36	72
691.517	78
697.669	86
703.814	98
709.953	96
716.085	96
722.21	130
728.33	124
734.443	134
740.549	172
746.65	174
752.743	198
758.831	234
764.912	230
770.986	194
777.055	212
783.117	250
789.173	306
795.222	350
801.265	288
807.302	198
813.333	158
819.357	124
825.376	114
831.387	106
837.392	148
843.392	168
849.386	136
855.372	126
861.353	112
867.328	120
873.296	122
879.258	108
885.214	110
891.164	108
897.108	124
903.046	148
908.977	142
914.903	116
920.822	98
926.735	104
932.643	88
938.543	100
944.439	102
950.328	106
956.21	102
962.088	116
967.958	122
973.824	136
979.682	178
985.534	292
991.382	772
997.222	1222
1003.06	2864
1008.89	438
1014.71	184
1020.53	224
1026.34	500
1032.14	876
1037.94	410
1043.73	208
1049.52	156
1055.3	152
1061.08	160
1066.85	172
1072.61	180
1078.37	166
1084.12	154
1089.87	168
1095.61	174
1101.34	162
1107.07	146
1112.8	134
1118.51	108
1124.22	102
1129.93	96
1135.63	116
1141.32	134
1147.01	166
1152.69	346
1158.37	348
1164.04	208
1169.71	212
1175.37	292
1181.02	532
1186.67	432
1192.31	460
1197.95	484
1203.58	460
1209.2	312
1214.82	230
1220.44	200
1226.05	200
1231.65	178
1237.25	170
1242.84	178
1248.42	172
1254	158
1259.58	182
1265.15	170
1270.71	174
1276.27	174
1281.82	174
1287.37	180
1292.91	198
1298.45	202
1303.98	218
1309.5	228
1315.02	252
1320.53	290
1326.04	290
1331.54	296
1337.04	288
1342.53	270
1348.02	244
1353.5	268
1358.98	256
1364.45	290
1369.91	274
1375.37	272
1380.82	252
1386.27	252
1391.71	220
1397.15	232
1402.58	242
1408.01	220
1413.43	230
1418.85	226
1424.26	222
1429.66	208
1435.06	236
1440.46	296
1445.85	316
1451.23	338
1456.61	266
1461.98	214
1467.35	206
1472.71	192
1478.07	172
1483.42	188
1488.77	178
1494.11	186
1499.45	182
1504.78	176
1510.11	164
1515.43	170
1520.74	180
1526.05	168
1531.36	180
1536.66	150
1541.95	174
1547.24	160
1552.52	164
1557.8	166
1563.08	174
1568.35	186
1573.61	192
1578.87	272
1584.12	392
1589.37	240
1594.61	304
1599.85	600
1605.08	532
1610.31	266
1615.53	194
1620.75	180
1625.96	162
1631.17	142
1636.37	142
1641.57	146
1646.76	150
1651.95	142
1657.13	124
1662.31	126
1667.48	128
1672.65	118
1677.81	128
1682.97	118
1688.12	116
1693.27	122
1698.41	124
1702.26	132