File: Mixture_Classification/Jesse_Dataset_v2/Pure Raman/Polystyrene/785nm/ps-ppo-6jan25-1,0000-map3_Y00_X00.txt
204.377	832
211.048	900
217.712	916
224.369	898
231.019	728
237.661	530
244.297	372
250.924	314
257.546	266
264.16	274
270.766	250
277.365	224
283.958	218
290.543	192
297.121	176
303.693	152
310.256	178
316.813	168
323.362	168
329.905	174
336.441	170
342.969	164
349.491	156
356.006	144
362.513	142
369.014	156
375.508	170
381.994	178
388.473	186
394.947	182
401.412	216
407.871	230
414.323	190
420.768	172
427.206	166
433.637	148
440.062	144
446.479	136
452.89	114
459.293	106
465.691	98
472.081	106
478.463	102
484.84	110
491.21	96
497.573	102
503.929	104
510.279	106
516.621	110
522.957	110
529.287	118
535.609	136
541.925	144
548.234	146
554.536	136
560.832	130
567.12	134
573.403	134
579.679	120
585.948	124
592.211	106
598.466	116
604.715	140
610.958	136
617.194	332
623.424	458
629.647	148
635.864	108
642.074	86
648.276	82
654.473	82
660.664	84
666.847	80
673.025	78
679.195	80
685.36	76
691.517	74
697.669	98
703.814	96
709.953	100
716.085	98
722.21	132
728.33	142
734.443	150
740.549	174
746.65	188
752.743	206
758.831	238
764.912	214
770.986	198
777.055	206
783.117	234
789.173	312
795.222	352
801.265	272
807.302	204
813.333	160
819.357	134
825.376	120
831.387	116
837.392	154
843.392	150
849.386	142
855.372	126
861.353	118
867.328	128
873.296	134
879.258	120
885.214	120
891.164	114
897.108	126
903.046	150
908.977	140
914.903	114
920.822	108
926.735	96
932.643	94
938.543	98
944.439	100
950.328	106
956.21	114
962.088	120
967.958	126
973.824	130
979.682	182
985.534	262
991.382	698
997.222	1198
1003.06	2890
1008.89	438
1014.71	194
1020.53	226
1026.34	504
1032.14	942
1037.94	400
1043.73	190
1049.52	146
1055.3	152
1061.08	174
1066.85	172
1072.61	168
1078.37	164
1084.12	156
1089.87	164
1095.61	178
1101.34	154
1107.07	138
1112.8	126
1118.51	112
1124.22	100
1129.93	116
1135.63	112
1141.32	136
1147.01	166
1152.69	370
1158.37	344
1164.04	220
1169.71	198
1175.37	274
1181.02	510
1186.67	428
1192.31	492
1197.95	504
1203.58	426
1209.2	338
1214.82	224
1220.44	216
1226.05	188
1231.65	186
1237.25	156
1242.84	172
1248.42	166
1254	154
1259.58	164
1265.15	164
1270.71	156
1276.27	160
1281.82	166
1287.37	172
1292.91	186
1298.45	198
1303.98	204
1309.5	212
1315.02	230
1320.53	246
1326.04	284
1331.54	278
1337.04	278
1342.53	252
1348.02	252
1353.5	256
1358.98	258
1364.45	272
1369.91	272
1375.37	270
1380.82	238
1386.27	236
1391.71	236
1397.15	218
1402.58	222
1408.01	214
1413.43	206
1418.85	220
1424.26	208
1429.66	208
1435.06	238
1440.46	280
1445.85	320
1451.23	316
1456.61	270
1461.98	196
1467.35	184
1472.71	180
1478.07	174
1483.42	168
1488.77	164
1494.11	176
1499.45	160
1504.78	174
1510.11	160
1515.43	158
1520.74	150
1526.05	156
1531.36	142
1536.66	146
1541.95	152
1547.24	164
1552.52	166
1557.8	162
1563.08	166
1568.35	176
1573.61	182
1578.87	272
1584.12	414
1589.37	244
1594.61	286
1599.85	608
1605.08	536
1610.31	276
1615.53	190
1620.75	162
1625.96	134
1631.17	148
1636.37	154
1641.57	156
1646.76	148
1651.95	140
1657.13	138
1662.31	132
1667.48	128
1672.65	114
1677.81	124
1682.97	136
1688.12	126
1693.27	130
1698.41	114
1702.26	116