File: Mixture_Classification/Jesse_Dataset_v2/Pure Raman/Polystyrene/785nm/ps-ppo-6jan25-1,0000-map3_Y03_X09.txt
204.377	848
211.048	898
217.712	916
224.369	874
231.019	706
237.661	562
244.297	384
250.924	304
257.546	284
264.16	262
270.766	244
277.365	222
283.958	216
290.543	182
297.121	166
303.693	164
310.256	162
316.813	172
323.362	162
329.905	176
336.441	170
342.969	160
349.491	150
356.006	146
362.513	166
369.014	150
375.508	156
381.994	170
388.473	172
394.947	180
401.412	206
407.871	246
414.323	190
420.768	170
427.206	152
433.637	136
440.062	142
446.479	132
452.89	118
459.293	106
465.691	100
472.081	110
478.463	104
484.84	100
491.21	96
497.573	104
503.929	112
510.279	104
516.621	108
522.957	112
529.287	122
535.609	142
541.925	140
548.234	144
554.536	134
560.832	134
567.12	132
573.403	148
579.679	118
585.948	98
592.211	110
598.466	110
604.715	132
610.958	154
617.194	314
623.424	464
629.647	144
635.864	98
642.074	90
648.276	82
654.473	78
660.664	76
666.847	78
673.025	68
679.195	84
685.36	76
691.517	82
697.669	90
703.814	104
709.953	102
716.085	96
722.21	138
728.33	138
734.443	128
740.549	168
746.65	194
752.743	204
758.831	230
764.912	220
770.986	192
777.055	200
783.117	240
789.173	298
795.222	342
801.265	286
807.302	200
813.333	162
819.357	128
825.376	118
831.387	122
837.392	144
843.392	150
849.386	146
855.372	124
861.353	122
867.328	134
873.296	132
879.258	122
885.214	114
891.164	116
897.108	120
903.046	138
908.977	132
914.903	120
920.822	110
926.735	104
932.643	92
938.543	102
944.439	104
950.328	100
956.21	108
962.088	122
967.958	136
973.824	126
979.682	186
985.534	272
991.382	754
997.222	1220
1003.06	2856
1008.89	450
1014.71	188
1020.53	240
1026.34	498
1032.14	870
1037.94	396
1043.73	208
1049.52	172
1055.3	164
1061.08	162
1066.85	180
1072.61	182
1078.37	178
1084.12	176
1089.87	160
1095.61	180
1101.34	170
1107.07	148
1112.8	140
1118.51	124
1124.22	120
1129.93	100
1135.63	108
1141.32	138
1147.01	192
1152.69	346
1158.37	358
1164.04	220
1169.71	212
1175.37	296
1181.02	528
1186.67	446
1192.31	482
1197.95	512
1203.58	460
1209.2	326
1214.82	232
1220.44	202
1226.05	184
1231.65	196
1237.25	174
1242.84	164
1248.42	166
1254	176
1259.58	182
1265.15	184
1270.71	170
1276.27	176
1281.82	190
1287.37	174
1292.91	210
1298.45	216
1303.98	222
1309.5	224
1315.02	242
1320.53	286
1326.04	304
1331.54	298
1337.04	296
1342.53	300
1348.02	270
1353.5	262
1358.98	266
1364.45	290
1369.91	290
1375.37	280
1380.82	268
1386.27	262
1391.71	248
1397.15	264
1402.58	242
1408.01	246
1413.43	242
1418.85	228
1424.26	238
1429.66	236
1435.06	256
1440.46	306
1445.85	346
1451.23	332
1456.61	276
1461.98	224
1467.35	202
1472.71	196
1478.07	182
1483.42	196
1488.77	186
1494.11	186
1499.45	168
1504.78	174
1510.11	178
1515.43	166
1520.74	170
1526.05	164
1531.36	158
1536.66	160
1541.95	170
1547.24	152
1552.52	176
1557.8	166
1563.08	178
1568.35	166
1573.61	202
1578.87	284
1584.12	388
1589.37	250
1594.61	310
1599.85	642
1605.08	556
1610.31	274
1615.53	190
1620.75	168
1625.96	162
1631.17	158
1636.37	154
1641.57	152
1646.76	162
1651.95	144
1657.13	142
1662.31	132
1667.48	130
1672.65	128
1677.81	126
1682.97	130
1688.12	134
1693.27	122
1698.41	120
1702.26	124