File: Mixture_Classification/Jesse_Dataset_v2/Pure Raman/Polystyrene/785nm/ps-ppo-6jan25-1,0000-map3_Y06_X09.txt
204.377	848
211.048	862
217.712	944
224.369	882
231.019	718
237.661	552
244.297	376
250.924	310
257.546	298
264.16	266
270.766	250
277.365	242
283.958	222
290.543	192
297.121	186
303.693	184
310.256	182
316.813	178
323.362	174
329.905	180
336.441	172
342.969	168
349.491	162
356.006	160
362.513	156
369.014	158
375.508	164
381.994	180
388.473	186
394.947	192
401.412	242
407.871	242
414.323	188
420.768	176
427.206	162
433.637	156
440.062	148
446.479	140
452.89	122
459.293	110
465.691	110
472.081	120
478.463	114
484.84	108
491.21	108
497.573	104
503.929	106
510.279	110
516.621	112
522.957	122
529.287	124
535.609	142
541.925	160
548.234	142
554.536	144
560.832	140
567.12	134
573.403	150
579.679	130
585.948	100
592.211	120
598.466	108
604.715	138
610.958	146
617.194	314
623.424	488
629.647	152
635.864	108
642.074	92
648.276	88
654.473	90
660.664	86
666.847	82
673.025	92
679.195	82
685.36	80
691.517	82
697.669	92
703.814	100
709.953	106
716.085	100
722.21	136
728.33	136
734.443	140
740.549	178
746.65	186
752.743	224
758.831	244
764.912	220
770.986	202
777.055	204
783.117	238
789.173	306
795.222	350
801.265	270
807.302	200
813.333	162
819.357	128
825.376	114
831.387	124
837.392	146
843.392	168
849.386	142
855.372	136
861.353	134
867.328	134
873.296	130
879.258	120
885.214	120
891.164	112
897.108	120
903.046	136
908.977	144
914.903	116
920.822	108
926.735	90
932.643	98
938.543	112
944.439	112
950.328	112
956.21	102
962.088	128
967.958	136
973.824	138
979.682	198
985.534	264
991.382	794
997.222	1284
1003.06	2886
1008.89	442
1014.71	184
1020.53	218
1026.34	502
1032.14	876
1037.94	410
1043.73	216
1049.52	166
1055.3	168
1061.08	170
1066.85	180
1072.61	178
1078.37	172
1084.12	174
1089.87	154
1095.61	172
1101.34	180
1107.07	146
1112.8	134
1118.51	122
1124.22	118
1129.93	114
1135.63	120
1141.32	150
1147.01	178
1152.69	348
1158.37	342
1164.04	216
1169.71	222
1175.37	314
1181.02	542
1186.67	430
1192.31	498
1197.95	512
1203.58	444
1209.2	332
1214.82	240
1220.44	226
1226.05	220
1231.65	194
1237.25	168
1242.84	176
1248.42	166
1254	162
1259.58	168
1265.15	176
1270.71	176
1276.27	178
1281.82	188
1287.37	190
1292.91	194
1298.45	212
1303.98	238
1309.5	228
1315.02	248
1320.53	286
1326.04	308
1331.54	294
1337.04	304
1342.53	278
1348.02	266
1353.5	264
1358.98	284
1364.45	276
1369.91	292
1375.37	302
1380.82	276
1386.27	256
1391.71	244
1397.15	224
1402.58	242
1408.01	256
1413.43	224
1418.85	222
1424.26	234
1429.66	232
1435.06	240
1440.46	280
1445.85	326
1451.23	336
1456.61	270
1461.98	224
1467.35	208
1472.71	190
1478.07	194
1483.42	192
1488.77	196
1494.11	192
1499.45	180
1504.78	180
1510.11	182
1515.43	182
1520.74	174
1526.05	170
1531.36	176
1536.66	164
1541.95	172
1547.24	176
1552.52	168
1557.8	166
1563.08	168
1568.35	174
1573.61	202
1578.87	306
1584.12	402
1589.37	266
1594.61	318
1599.85	634
1605.08	548
1610.31	288
1615.53	198
1620.75	186
1625.96	162
1631.17	164
1636.37	146
1641.57	164
1646.76	164
1651.95	162
1657.13	150
1662.31	140
1667.48	124
1672.65	144
1677.81	138
1682.97	130
1688.12	128
1693.27	134
1698.41	126
1702.26	128