File: Mixture_Classification/Jesse_Dataset_v2/Pure Raman/Polystyrene/785nm/ps-ppo-6jan25-1,0000-map3_Y05_X01.txt
204.377	816
211.048	898
217.712	910
224.369	894
231.019	720
237.661	532
244.297	396
250.924	294
257.546	274
264.16	264
270.766	240
277.365	246
283.958	204
290.543	190
297.121	174
303.693	160
310.256	170
316.813	170
323.362	172
329.905	168
336.441	168
342.969	158
349.491	150
356.006	148
362.513	156
369.014	150
375.508	148
381.994	176
388.473	176
394.947	210
401.412	214
407.871	226
414.323	182
420.768	158
427.206	148
433.637	150
440.062	146
446.479	132
452.89	126
459.293	110
465.691	118
472.081	100
478.463	102
484.84	106
491.21	96
497.573	104
503.929	116
510.279	110
516.621	124
522.957	132
529.287	128
535.609	148
541.925	148
548.234	150
554.536	150
560.832	130
567.12	124
573.403	138
579.679	132
585.948	104
592.211	112
598.466	104
604.715	128
610.958	136
617.194	304
623.424	478
629.647	146
635.864	102
642.074	72
648.276	78
654.473	76
660.664	78
666.847	80
673.025	88
679.195	82
685.36	68
691.517	76
697.669	94
703.814	104
709.953	100
716.085	96
722.21	132
728.33	130
734.443	138
740.549	192
746.65	190
752.743	218
758.831	230
764.912	218
770.986	198
777.055	198
783.117	240
789.173	308
795.222	350
801.265	280
807.302	184
813.333	168
819.357	124
825.376	116
831.387	120
837.392	152
843.392	158
849.386	146
855.372	122
861.353	120
867.328	126
873.296	128
879.258	134
885.214	126
891.164	116
897.108	120
903.046	140
908.977	146
914.903	126
920.822	106
926.735	98
932.643	100
938.543	106
944.439	102
950.328	106
956.21	110
962.088	120
967.958	128
973.824	146
979.682	188
985.534	262
991.382	754
997.222	1226
1003.06	2806
1008.89	448
1014.71	192
1020.53	218
1026.34	472
1032.14	900
1037.94	398
1043.73	218
1049.52	168
1055.3	162
1061.08	152
1066.85	180
1072.61	188
1078.37	172
1084.12	150
1089.87	164
1095.61	162
1101.34	164
1107.07	138
1112.8	120
1118.51	122
1124.22	102
1129.93	114
1135.63	116
1141.32	130
1147.01	170
1152.69	354
1158.37	348
1164.04	206
1169.71	218
1175.37	300
1181.02	534
1186.67	452
1192.31	454
1197.95	484
1203.58	424
1209.2	326
1214.82	230
1220.44	208
1226.05	196
1231.65	188
1237.25	164
1242.84	166
1248.42	156
1254	164
1259.58	172
1265.15	174
1270.71	156
1276.27	164
1281.82	176
1287.37	186
1292.91	188
1298.45	206
1303.98	220
1309.5	226
1315.02	236
1320.53	276
1326.04	272
1331.54	272
1337.04	282
1342.53	258
1348.02	262
1353.5	258
1358.98	270
1364.45	272
1369.91	256
1375.37	272
1380.82	272
1386.27	242
1391.71	230
1397.15	224
1402.58	232
1408.01	236
1413.43	228
1418.85	206
1424.26	206
1429.66	218
1435.06	242
1440.46	286
1445.85	322
1451.23	316
1456.61	266
1461.98	212
1467.35	176
1472.71	178
1478.07	192
1483.42	180
1488.77	160
1494.11	172
1499.45	162
1504.78	154
1510.11	162
1515.43	170
1520.74	166
1526.05	162
1531.36	154
1536.66	158
1541.95	156
1547.24	160
1552.52	158
1557.8	164
1563.08	154
1568.35	170
1573.61	188
1578.87	262
1584.12	388
1589.37	228
1594.61	310
1599.85	612
1605.08	558
1610.31	280
1615.53	198
1620.75	186
1625.96	162
1631.17	158
1636.37	152
1641.57	144
1646.76	148
1651.95	148
1657.13	130
1662.31	126
1667.48	130
1672.65	120
1677.81	134
1682.97	124
1688.12	130
1693.27	130
1698.41	116
1702.26	126