File: Mixture_Classification/Jesse_Dataset_v2/Pure Raman/Polystyrene/785nm/ps-ppo-6jan25-1,0000-map3_Y03_X01.txt
204.377	834
211.048	886
217.712	920
224.369	878
231.019	708
237.661	542
244.297	388
250.924	306
257.546	272
264.16	260
270.766	252
277.365	218
283.958	216
290.543	192
297.121	172
303.693	162
310.256	156
316.813	178
323.362	164
329.905	168
336.441	156
342.969	164
349.491	152
356.006	140
362.513	134
369.014	144
375.508	154
381.994	160
388.473	170
394.947	184
401.412	200
407.871	230
414.323	200
420.768	162
427.206	154
433.637	138
440.062	136
446.479	128
452.89	118
459.293	104
465.691	104
472.081	102
478.463	94
484.84	94
491.21	90
497.573	100
503.929	108
510.279	102
516.621	106
522.957	106
529.287	120
535.609	142
541.925	136
548.234	140
554.536	134
560.832	122
567.12	132
573.403	132
579.679	112
585.948	106
592.211	106
598.466	108
604.715	130
610.958	142
617.194	314
623.424	484
629.647	148
635.864	98
642.074	78
648.276	76
654.473	76
660.664	76
666.847	80
673.025	76
679.195	72
685.36	80
691.517	72
697.669	80
703.814	96
709.953	86
716.085	84
722.21	136
728.33	134
734.443	122
740.549	180
746.65	182
752.743	206
758.831	236
764.912	222
770.986	200
777.055	196
783.117	232
789.173	296
795.222	328
801.265	278
807.302	188
813.333	154
819.357	116
825.376	112
831.387	118
837.392	144
843.392	152
849.386	134
855.372	116
861.353	126
867.328	124
873.296	120
879.258	114
885.214	106
891.164	108
897.108	116
903.046	130
908.977	140
914.903	122
920.822	108
926.735	96
932.643	96
938.543	82
944.439	90
950.328	98
956.21	98
962.088	114
967.958	126
973.824	128
979.682	182
985.534	264
991.382	718
997.222	1180
1003.06	2884
1008.89	424
1014.71	190
1020.53	230
1026.34	484
1032.14	854
1037.94	404
1043.73	198
1049.52	146
1055.3	154
1061.08	150
1066.85	166
1072.61	174
1078.37	166
1084.12	158
1089.87	160
1095.61	174
1101.34	166
1107.07	144
1112.8	134
1118.51	126
1124.22	112
1129.93	108
1135.63	112
1141.32	128
1147.01	172
1152.69	356
1158.37	322
1164.04	218
1169.71	202
1175.37	302
1181.02	540
1186.67	430
1192.31	482
1197.95	474
1203.58	422
1209.2	324
1214.82	228
1220.44	194
1226.05	196
1231.65	178
1237.25	156
1242.84	172
1248.42	166
1254	168
1259.58	176
1265.15	166
1270.71	158
1276.27	170
1281.82	172
1287.37	180
1292.91	186
1298.45	186
1303.98	210
1309.5	230
1315.02	220
1320.53	268
1326.04	282
1331.54	288
1337.04	272
1342.53	264
1348.02	270
1353.5	246
1358.98	242
1364.45	264
1369.91	256
1375.37	282
1380.82	250
1386.27	252
1391.71	228
1397.15	212
1402.58	200
1408.01	216
1413.43	200
1418.85	212
1424.26	212
1429.66	188
1435.06	220
1440.46	262
1445.85	300
1451.23	334
1456.61	264
1461.98	196
1467.35	194
1472.71	170
1478.07	178
1483.42	176
1488.77	154
1494.11	186
1499.45	170
1504.78	154
1510.11	152
1515.43	142
1520.74	166
1526.05	164
1531.36	156
1536.66	152
1541.95	146
1547.24	154
1552.52	152
1557.8	152
1563.08	158
1568.35	168
1573.61	188
1578.87	260
1584.12	380
1589.37	232
1594.61	300
1599.85	596
1605.08	554
1610.31	276
1615.53	190
1620.75	154
1625.96	142
1631.17	148
1636.37	140
1641.57	156
1646.76	146
1651.95	134
1657.13	136
1662.31	132
1667.48	128
1672.65	122
1677.81	122
1682.97	124
1688.12	112
1693.27	114
1698.41	116
1702.26	112