File: Mixture_Classification/Jesse_Dataset_v2/Pure Raman/Polystyrene/785nm/ps-ppo-6jan25-1,0000-map3_Y01_X08.txt
204.377	816
211.048	918
217.712	942
224.369	876
231.019	724
237.661	554
244.297	396
250.924	306
257.546	262
264.16	260
270.766	236
277.365	224
283.958	210
290.543	162
297.121	162
303.693	164
310.256	162
316.813	168
323.362	158
329.905	162
336.441	166
342.969	158
349.491	152
356.006	146
362.513	146
369.014	150
375.508	156
381.994	166
388.473	182
394.947	184
401.412	206
407.871	232
414.323	198
420.768	160
427.206	144
433.637	142
440.062	142
446.479	134
452.89	114
459.293	106
465.691	102
472.081	108
478.463	102
484.84	96
491.21	100
497.573	102
503.929	106
510.279	110
516.621	108
522.957	108
529.287	122
535.609	138
541.925	150
548.234	136
554.536	144
560.832	128
567.12	134
573.403	134
579.679	120
585.948	116
592.211	110
598.466	104
604.715	128
610.958	160
617.194	298
623.424	478
629.647	146
635.864	104
642.074	92
648.276	72
654.473	74
660.664	74
666.847	86
673.025	72
679.195	74
685.36	78
691.517	66
697.669	88
703.814	100
709.953	92
716.085	98
722.21	132
728.33	120
734.443	132
740.549	182
746.65	180
752.743	214
758.831	218
764.912	216
770.986	198
777.055	210
783.117	240
789.173	316
795.222	342
801.265	276
807.302	186
813.333	164
819.357	130
825.376	106
831.387	114
837.392	132
843.392	156
849.386	134
855.372	122
861.353	122
867.328	128
873.296	130
879.258	110
885.214	114
891.164	106
897.108	126
903.046	138
908.977	140
914.903	120
920.822	102
926.735	94
932.643	100
938.543	98
944.439	106
950.328	102
956.21	108
962.088	124
967.958	132
973.824	122
979.682	178
985.534	268
991.382	786
997.222	1194
1003.06	2842
1008.89	472
1014.71	190
1020.53	226
1026.34	510
1032.14	906
1037.94	406
1043.73	202
1049.52	164
1055.3	156
1061.08	160
1066.85	168
1072.61	166
1078.37	170
1084.12	166
1089.87	166
1095.61	178
1101.34	164
1107.07	142
1112.8	130
1118.51	118
1124.22	98
1129.93	106
1135.63	110
1141.32	134
1147.01	174
1152.69	348
1158.37	342
1164.04	204
1169.71	214
1175.37	290
1181.02	492
1186.67	440
1192.31	466
1197.95	490
1203.58	424
1209.2	308
1214.82	234
1220.44	196
1226.05	192
1231.65	186
1237.25	180
1242.84	180
1248.42	172
1254	172
1259.58	162
1265.15	170
1270.71	176
1276.27	166
1281.82	184
1287.37	194
1292.91	198
1298.45	202
1303.98	212
1309.5	238
1315.02	248
1320.53	284
1326.04	282
1331.54	306
1337.04	288
1342.53	280
1348.02	282
1353.5	274
1358.98	276
1364.45	292
1369.91	288
1375.37	292
1380.82	252
1386.27	248
1391.71	234
1397.15	246
1402.58	242
1408.01	230
1413.43	220
1418.85	228
1424.26	210
1429.66	228
1435.06	242
1440.46	288
1445.85	330
1451.23	318
1456.61	280
1461.98	214
1467.35	200
1472.71	178
1478.07	184
1483.42	168
1488.77	178
1494.11	188
1499.45	174
1504.78	182
1510.11	160
1515.43	170
1520.74	160
1526.05	162
1531.36	162
1536.66	158
1541.95	162
1547.24	150
1552.52	180
1557.8	170
1563.08	158
1568.35	166
1573.61	188
1578.87	282
1584.12	396
1589.37	250
1594.61	300
1599.85	618
1605.08	562
1610.31	272
1615.53	208
1620.75	166
1625.96	162
1631.17	154
1636.37	144
1641.57	148
1646.76	160
1651.95	144
1657.13	144
1662.31	120
1667.48	120
1672.65	134
1677.81	128
1682.97	134
1688.12	124
1693.27	124
1698.41	116
1702.26	120