File: Mixture_Classification/Jesse_Dataset_v2/Pure Raman/Polystyrene/785nm/ps-ppo-6jan25-1,0000-map3_Y05_X00.txt
204.377	834
211.048	844
217.712	962
224.369	840
231.019	714
237.661	534
244.297	392
250.924	308
257.546	270
264.16	250
270.766	244
277.365	244
283.958	214
290.543	190
297.121	170
303.693	170
310.256	170
316.813	164
323.362	174
329.905	168
336.441	162
342.969	160
349.491	144
356.006	142
362.513	150
369.014	142
375.508	164
381.994	176
388.473	170
394.947	202
401.412	212
407.871	206
414.323	196
420.768	160
427.206	154
433.637	136
440.062	140
446.479	132
452.89	112
459.293	108
465.691	112
472.081	102
478.463	102
484.84	104
491.21	96
497.573	102
503.929	108
510.279	106
516.621	108
522.957	114
529.287	120
535.609	138
541.925	140
548.234	136
554.536	138
560.832	132
567.12	148
573.403	148
579.679	116
585.948	100
592.211	112
598.466	114
604.715	124
610.958	142
617.194	326
623.424	480
629.647	150
635.864	108
642.074	94
648.276	78
654.473	74
660.664	72
666.847	74
673.025	72
679.195	64
685.36	72
691.517	74
697.669	92
703.814	92
709.953	94
716.085	96
722.21	128
728.33	138
734.443	130
740.549	184
746.65	184
752.743	214
758.831	232
764.912	218
770.986	194
777.055	198
783.117	228
789.173	310
795.222	334
801.265	272
807.302	212
813.333	150
819.357	126
825.376	114
831.387	114
837.392	140
843.392	154
849.386	142
855.372	126
861.353	126
867.328	122
873.296	110
879.258	114
885.214	106
891.164	112
897.108	122
903.046	132
908.977	142
914.903	112
920.822	100
926.735	94
932.643	96
938.543	98
944.439	104
950.328	102
956.21	110
962.088	124
967.958	114
973.824	138
979.682	194
985.534	264
991.382	760
997.222	1200
1003.06	2844
1008.89	450
1014.71	180
1020.53	214
1026.34	478
1032.14	862
1037.94	406
1043.73	192
1049.52	162
1055.3	148
1061.08	144
1066.85	176
1072.61	174
1078.37	164
1084.12	164
1089.87	158
1095.61	180
1101.34	176
1107.07	136
1112.8	122
1118.51	112
1124.22	116
1129.93	114
1135.63	110
1141.32	122
1147.01	172
1152.69	358
1158.37	338
1164.04	212
1169.71	206
1175.37	290
1181.02	508
1186.67	442
1192.31	450
1197.95	502
1203.58	444
1209.2	322
1214.82	222
1220.44	194
1226.05	204
1231.65	168
1237.25	170
1242.84	166
1248.42	162
1254	166
1259.58	156
1265.15	158
1270.71	154
1276.27	154
1281.82	168
1287.37	176
1292.91	174
1298.45	214
1303.98	206
1309.5	214
1315.02	238
1320.53	258
1326.04	310
1331.54	284
1337.04	264
1342.53	270
1348.02	262
1353.5	256
1358.98	260
1364.45	284
1369.91	266
1375.37	270
1380.82	252
1386.27	228
1391.71	226
1397.15	214
1402.58	222
1408.01	226
1413.43	218
1418.85	212
1424.26	206
1429.66	230
1435.06	234
1440.46	282
1445.85	316
1451.23	290
1456.61	276
1461.98	190
1467.35	192
1472.71	184
1478.07	178
1483.42	180
1488.77	184
1494.11	164
1499.45	162
1504.78	162
1510.11	164
1515.43	156
1520.74	170
1526.05	162
1531.36	146
1536.66	160
1541.95	166
1547.24	166
1552.52	148
1557.8	154
1563.08	166
1568.35	160
1573.61	176
1578.87	258
1584.12	400
1589.37	252
1594.61	298
1599.85	616
1605.08	564
1610.31	268
1615.53	198
1620.75	170
1625.96	158
1631.17	136
1636.37	140
1641.57	142
1646.76	144
1651.95	150
1657.13	136
1662.31	122
1667.48	118
1672.65	126
1677.81	132
1682.97	112
1688.12	126
1693.27	112
1698.41	110
1702.26	118