File: Mixture_Classification/Jesse_Dataset_v2/Pure Raman/Polystyrene/785nm/ps-ppo-6jan25-1,0000-map3_Y10_X08.txt
204.377	824
211.048	910
217.712	898
224.369	884
231.019	718
237.661	544
244.297	404
250.924	300
257.546	286
264.16	270
270.766	256
277.365	232
283.958	218
290.543	182
297.121	184
303.693	172
310.256	182
316.813	170
323.362	186
329.905	180
336.441	180
342.969	162
349.491	176
356.006	148
362.513	144
369.014	170
375.508	174
381.994	188
388.473	198
394.947	192
401.412	226
407.871	256
414.323	194
420.768	178
427.206	164
433.637	132
440.062	150
446.479	140
452.89	120
459.293	128
465.691	106
472.081	106
478.463	112
484.84	108
491.21	98
497.573	98
503.929	130
510.279	104
516.621	122
522.957	126
529.287	140
535.609	148
541.925	148
548.234	156
554.536	144
560.832	148
567.12	144
573.403	142
579.679	122
585.948	118
592.211	102
598.466	126
604.715	130
610.958	146
617.194	328
623.424	446
629.647	144
635.864	106
642.074	94
648.276	80
654.473	84
660.664	88
666.847	92
673.025	74
679.195	78
685.36	80
691.517	82
697.669	92
703.814	98
709.953	96
716.085	94
722.21	138
728.33	128
734.443	140
740.549	174
746.65	190
752.743	220
758.831	236
764.912	230
770.986	202
777.055	196
783.117	242
789.173	318
795.222	342
801.265	262
807.302	212
813.333	160
819.357	132
825.376	112
831.387	112
837.392	146
843.392	164
849.386	128
855.372	136
861.353	130
867.328	128
873.296	120
879.258	112
885.214	118
891.164	116
897.108	116
903.046	148
908.977	134
914.903	118
920.822	100
926.735	104
932.643	94
938.543	100
944.439	90
950.328	100
956.21	102
962.088	106
967.958	140
973.824	140
979.682	174
985.534	284
991.382	808
997.222	1268
1003.06	2866
1008.89	462
1014.71	188
1020.53	222
1026.34	522
1032.14	910
1037.94	404
1043.73	190
1049.52	160
1055.3	160
1061.08	166
1066.85	176
1072.61	180
1078.37	168
1084.12	170
1089.87	182
1095.61	170
1101.34	158
1107.07	150
1112.8	140
1118.51	124
1124.22	104
1129.93	112
1135.63	114
1141.32	130
1147.01	174
1152.69	364
1158.37	342
1164.04	212
1169.71	210
1175.37	318
1181.02	522
1186.67	442
1192.31	470
1197.95	492
1203.58	456
1209.2	326
1214.82	226
1220.44	216
1226.05	192
1231.65	184
1237.25	180
1242.84	172
1248.42	182
1254	168
1259.58	176
1265.15	178
1270.71	180
1276.27	186
1281.82	166
1287.37	176
1292.91	208
1298.45	220
1303.98	226
1309.5	220
1315.02	244
1320.53	288
1326.04	290
1331.54	296
1337.04	294
1342.53	290
1348.02	284
1353.5	272
1358.98	286
1364.45	278
1369.91	278
1375.37	294
1380.82	272
1386.27	252
1391.71	254
1397.15	242
1402.58	240
1408.01	246
1413.43	242
1418.85	232
1424.26	236
1429.66	234
1435.06	250
1440.46	288
1445.85	332
1451.23	344
1456.61	280
1461.98	224
1467.35	210
1472.71	202
1478.07	196
1483.42	196
1488.77	200
1494.11	182
1499.45	186
1504.78	172
1510.11	178
1515.43	184
1520.74	162
1526.05	176
1531.36	174
1536.66	162
1541.95	168
1547.24	164
1552.52	170
1557.8	178
1563.08	180
1568.35	196
1573.61	198
1578.87	286
1584.12	426
1589.37	266
1594.61	308
1599.85	638
1605.08	582
1610.31	276
1615.53	218
1620.75	180
1625.96	178
1631.17	164
1636.37	152
1641.57	164
1646.76	158
1651.95	150
1657.13	144
1662.31	140
1667.48	132
1672.65	134
1677.81	130
1682.97	148
1688.12	136
1693.27	122
1698.41	132
1702.26	122