File: Mixture_Classification/Jesse_Dataset_v2/Pure Raman/Polystyrene/785nm/ps-ppo-6jan25-1,0000-map3_Y09_X09.txt
204.377	846
211.048	884
217.712	914
224.369	890
231.019	708
237.661	522
244.297	378
250.924	302
257.546	278
264.16	250
270.766	236
277.365	234
283.958	214
290.543	194
297.121	174
303.693	170
310.256	178
316.813	178
323.362	174
329.905	170
336.441	158
342.969	166
349.491	154
356.006	160
362.513	148
369.014	152
375.508	164
381.994	180
388.473	200
394.947	190
401.412	210
407.871	232
414.323	194
420.768	174
427.206	154
433.637	150
440.062	132
446.479	130
452.89	120
459.293	114
465.691	114
472.081	106
478.463	110
484.84	108
491.21	96
497.573	112
503.929	110
510.279	110
516.621	120
522.957	110
529.287	128
535.609	146
541.925	146
548.234	144
554.536	146
560.832	140
567.12	134
573.403	146
579.679	122
585.948	114
592.211	106
598.466	114
604.715	138
610.958	156
617.194	312
623.424	462
629.647	148
635.864	100
642.074	100
648.276	80
654.473	86
660.664	86
666.847	82
673.025	82
679.195	78
685.36	74
691.517	84
697.669	98
703.814	104
709.953	98
716.085	98
722.21	144
728.33	136
734.443	130
740.549	188
746.65	194
752.743	226
758.831	232
764.912	222
770.986	198
777.055	206
783.117	240
789.173	308
795.222	350
801.265	282
807.302	202
813.333	160
819.357	132
825.376	112
831.387	118
837.392	150
843.392	168
849.386	138
855.372	126
861.353	132
867.328	120
873.296	130
879.258	114
885.214	116
891.164	120
897.108	118
903.046	138
908.977	146
914.903	124
920.822	100
926.735	100
932.643	98
938.543	94
944.439	104
950.328	106
956.21	110
962.088	120
967.958	128
973.824	136
979.682	180
985.534	260
991.382	804
997.222	1274
1003.06	2778
1008.89	424
1014.71	190
1020.53	222
1026.34	510
1032.14	914
1037.94	408
1043.73	202
1049.52	160
1055.3	162
1061.08	160
1066.85	174
1072.61	190
1078.37	174
1084.12	160
1089.87	170
1095.61	180
1101.34	164
1107.07	144
1112.8	136
1118.51	114
1124.22	102
1129.93	120
1135.63	100
1141.32	134
1147.01	178
1152.69	366
1158.37	340
1164.04	228
1169.71	222
1175.37	306
1181.02	516
1186.67	444
1192.31	498
1197.95	500
1203.58	440
1209.2	308
1214.82	226
1220.44	220
1226.05	198
1231.65	188
1237.25	184
1242.84	174
1248.42	182
1254	176
1259.58	182
1265.15	164
1270.71	174
1276.27	180
1281.82	172
1287.37	160
1292.91	216
1298.45	200
1303.98	234
1309.5	238
1315.02	258
1320.53	278
1326.04	304
1331.54	314
1337.04	290
1342.53	260
1348.02	278
1353.5	274
1358.98	284
1364.45	288
1369.91	296
1375.37	302
1380.82	290
1386.27	260
1391.71	238
1397.15	256
1402.58	258
1408.01	240
1413.43	242
1418.85	218
1424.26	206
1429.66	228
1435.06	268
1440.46	270
1445.85	330
1451.23	342
1456.61	284
1461.98	232
1467.35	210
1472.71	194
1478.07	190
1483.42	180
1488.77	194
1494.11	196
1499.45	188
1504.78	188
1510.11	178
1515.43	180
1520.74	168
1526.05	160
1531.36	172
1536.66	172
1541.95	170
1547.24	180
1552.52	170
1557.8	172
1563.08	174
1568.35	178
1573.61	202
1578.87	274
1584.12	394
1589.37	266
1594.61	328
1599.85	612
1605.08	546
1610.31	264
1615.53	204
1620.75	184
1625.96	172
1631.17	166
1636.37	156
1641.57	160
1646.76	162
1651.95	158
1657.13	144
1662.31	138
1667.48	130
1672.65	128
1677.81	142
1682.97	128
1688.12	128
1693.27	128
1698.41	130
1702.26	120