File: Mixture_Classification/Jesse_Dataset_v2/Pure Raman/Polystyrene/785nm/ps-ppo-6jan25-1,0000-map3_Y09_X08.txt
204.377	850
211.048	908
217.712	918
224.369	880
231.019	700
237.661	556
244.297	394
250.924	322
257.546	312
264.16	266
270.766	254
277.365	260
283.958	232
290.543	208
297.121	190
303.693	170
310.256	174
316.813	182
323.362	192
329.905	188
336.441	190
342.969	188
349.491	166
356.006	164
362.513	144
369.014	164
375.508	182
381.994	184
388.473	200
394.947	204
401.412	210
407.871	248
414.323	206
420.768	182
427.206	170
433.637	150
440.062	144
446.479	148
452.89	128
459.293	124
465.691	120
472.081	112
478.463	114
484.84	104
491.21	112
497.573	118
503.929	126
510.279	112
516.621	126
522.957	126
529.287	130
535.609	152
541.925	158
548.234	152
554.536	144
560.832	142
567.12	142
573.403	158
579.679	134
585.948	130
592.211	128
598.466	122
604.715	140
610.958	152
617.194	332
623.424	460
629.647	162
635.864	110
642.074	96
648.276	96
654.473	88
660.664	82
666.847	92
673.025	86
679.195	88
685.36	86
691.517	84
697.669	98
703.814	110
709.953	108
716.085	104
722.21	138
728.33	134
734.443	142
740.549	188
746.65	200
752.743	200
758.831	256
764.912	236
770.986	210
777.055	196
783.117	240
789.173	310
795.222	348
801.265	290
807.302	206
813.333	168
819.357	138
825.376	118
831.387	124
837.392	148
843.392	166
849.386	136
855.372	124
861.353	130
867.328	126
873.296	120
879.258	118
885.214	116
891.164	116
897.108	126
903.046	146
908.977	156
914.903	104
920.822	104
926.735	100
932.643	92
938.543	102
944.439	108
950.328	104
956.21	108
962.088	122
967.958	136
973.824	140
979.682	174
985.534	274
991.382	822
997.222	1296
1003.06	2856
1008.89	436
1014.71	194
1020.53	230
1026.34	504
1032.14	896
1037.94	424
1043.73	202
1049.52	178
1055.3	156
1061.08	156
1066.85	184
1072.61	180
1078.37	166
1084.12	172
1089.87	184
1095.61	162
1101.34	168
1107.07	156
1112.8	142
1118.51	128
1124.22	112
1129.93	114
1135.63	110
1141.32	142
1147.01	182
1152.69	348
1158.37	338
1164.04	222
1169.71	214
1175.37	316
1181.02	546
1186.67	428
1192.31	474
1197.95	506
1203.58	446
1209.2	332
1214.82	254
1220.44	228
1226.05	204
1231.65	200
1237.25	184
1242.84	170
1248.42	180
1254	176
1259.58	180
1265.15	170
1270.71	176
1276.27	180
1281.82	184
1287.37	198
1292.91	186
1298.45	212
1303.98	214
1309.5	222
1315.02	254
1320.53	282
1326.04	300
1331.54	320
1337.04	294
1342.53	274
1348.02	264
1353.5	282
1358.98	276
1364.45	286
1369.91	282
1375.37	300
1380.82	276
1386.27	278
1391.71	254
1397.15	260
1402.58	250
1408.01	244
1413.43	232
1418.85	236
1424.26	226
1429.66	232
1435.06	260
1440.46	294
1445.85	330
1451.23	350
1456.61	276
1461.98	230
1467.35	214
1472.71	206
1478.07	186
1483.42	172
1488.77	182
1494.11	196
1499.45	176
1504.78	182
1510.11	168
1515.43	182
1520.74	176
1526.05	176
1531.36	176
1536.66	168
1541.95	176
1547.24	166
1552.52	168
1557.8	174
1563.08	170
1568.35	184
1573.61	198
1578.87	284
1584.12	410
1589.37	256
1594.61	304
1599.85	606
1605.08	576
1610.31	284
1615.53	198
1620.75	178
1625.96	164
1631.17	164
1636.37	156
1641.57	160
1646.76	160
1651.95	150
1657.13	148
1662.31	140
1667.48	140
1672.65	134
1677.81	140
1682.97	138
1688.12	132
1693.27	138
1698.41	122
1702.26	128