File: Mixture_Classification/Jesse_Dataset_v2/Pure Raman/Polystyrene/785nm/ps-ppo-6jan25-1,0000-map3_Y02_X01.txt
204.377	830
211.048	890
217.712	920
224.369	870
231.019	708
237.661	558
244.297	390
250.924	302
257.546	272
264.16	268
270.766	238
277.365	234
283.958	222
290.543	188
297.121	168
303.693	156
310.256	168
316.813	162
323.362	172
329.905	174
336.441	174
342.969	154
349.491	154
356.006	154
362.513	156
369.014	154
375.508	152
381.994	156
388.473	184
394.947	186
401.412	226
407.871	236
414.323	192
420.768	172
427.206	160
433.637	144
440.062	128
446.479	122
452.89	118
459.293	108
465.691	104
472.081	112
478.463	104
484.84	96
491.21	98
497.573	106
503.929	112
510.279	118
516.621	112
522.957	116
529.287	118
535.609	134
541.925	138
548.234	148
554.536	144
560.832	134
567.12	126
573.403	140
579.679	120
585.948	110
592.211	116
598.466	116
604.715	126
610.958	134
617.194	310
623.424	450
629.647	152
635.864	114
642.074	92
648.276	80
654.473	76
660.664	82
666.847	74
673.025	64
679.195	76
685.36	70
691.517	74
697.669	92
703.814	106
709.953	92
716.085	90
722.21	128
728.33	130
734.443	132
740.549	188
746.65	162
752.743	206
758.831	236
764.912	212
770.986	190
777.055	196
783.117	238
789.173	308
795.222	352
801.265	280
807.302	192
813.333	166
819.357	134
825.376	116
831.387	104
837.392	148
843.392	156
849.386	134
855.372	124
861.353	120
867.328	116
873.296	122
879.258	116
885.214	108
891.164	112
897.108	112
903.046	130
908.977	140
914.903	116
920.822	104
926.735	96
932.643	92
938.543	100
944.439	100
950.328	100
956.21	100
962.088	116
967.958	128
973.824	134
979.682	178
985.534	252
991.382	720
997.222	1226
1003.06	2894
1008.89	446
1014.71	176
1020.53	222
1026.34	492
1032.14	884
1037.94	414
1043.73	198
1049.52	158
1055.3	150
1061.08	158
1066.85	184
1072.61	158
1078.37	174
1084.12	160
1089.87	166
1095.61	172
1101.34	150
1107.07	144
1112.8	112
1118.51	120
1124.22	104
1129.93	96
1135.63	106
1141.32	130
1147.01	168
1152.69	370
1158.37	352
1164.04	218
1169.71	208
1175.37	290
1181.02	522
1186.67	418
1192.31	468
1197.95	498
1203.58	424
1209.2	320
1214.82	234
1220.44	212
1226.05	192
1231.65	172
1237.25	164
1242.84	172
1248.42	166
1254	168
1259.58	156
1265.15	172
1270.71	154
1276.27	176
1281.82	168
1287.37	174
1292.91	192
1298.45	186
1303.98	214
1309.5	218
1315.02	230
1320.53	254
1326.04	282
1331.54	298
1337.04	266
1342.53	250
1348.02	248
1353.5	266
1358.98	250
1364.45	272
1369.91	274
1375.37	266
1380.82	242
1386.27	244
1391.71	236
1397.15	244
1402.58	220
1408.01	222
1413.43	218
1418.85	218
1424.26	210
1429.66	206
1435.06	232
1440.46	284
1445.85	312
1451.23	326
1456.61	272
1461.98	210
1467.35	190
1472.71	180
1478.07	192
1483.42	168
1488.77	174
1494.11	180
1499.45	166
1504.78	164
1510.11	160
1515.43	150
1520.74	160
1526.05	176
1531.36	152
1536.66	158
1541.95	146
1547.24	154
1552.52	160
1557.8	154
1563.08	156
1568.35	162
1573.61	194
1578.87	246
1584.12	388
1589.37	240
1594.61	314
1599.85	604
1605.08	564
1610.31	276
1615.53	180
1620.75	174
1625.96	154
1631.17	148
1636.37	142
1641.57	148
1646.76	134
1651.95	138
1657.13	120
1662.31	134
1667.48	126
1672.65	120
1677.81	128
1682.97	124
1688.12	124
1693.27	120
1698.41	110
1702.26	116