File: Mixture_Classification/Jesse_Dataset_v2/Pure Raman/Polystyrene/785nm/ps-ppo-6jan25-1,0000-map3_Y07_X02.txt
204.377	832
211.048	872
217.712	928
224.369	878
231.019	730
237.661	550
244.297	380
250.924	302
257.546	282
264.16	270
270.766	246
277.365	228
283.958	202
290.543	196
297.121	158
303.693	168
310.256	176
316.813	170
323.362	160
329.905	174
336.441	162
342.969	160
349.491	156
356.006	162
362.513	142
369.014	144
375.508	160
381.994	172
388.473	182
394.947	194
401.412	200
407.871	238
414.323	192
420.768	172
427.206	158
433.637	134
440.062	130
446.479	132
452.89	118
459.293	106
465.691	102
472.081	98
478.463	90
484.84	94
491.21	94
497.573	108
503.929	114
510.279	104
516.621	110
522.957	100
529.287	118
535.609	136
541.925	142
548.234	148
554.536	142
560.832	136
567.12	128
573.403	138
579.679	120
585.948	100
592.211	104
598.466	110
604.715	120
610.958	142
617.194	320
623.424	458
629.647	140
635.864	100
642.074	92
648.276	82
654.473	80
660.664	80
666.847	74
673.025	74
679.195	74
685.36	76
691.517	72
697.669	90
703.814	90
709.953	96
716.085	90
722.21	130
728.33	130
734.443	138
740.549	192
746.65	190
752.743	214
758.831	240
764.912	220
770.986	186
777.055	190
783.117	246
789.173	306
795.222	366
801.265	278
807.302	198
813.333	164
819.357	128
825.376	116
831.387	124
837.392	138
843.392	162
849.386	132
855.372	132
861.353	122
867.328	106
873.296	122
879.258	118
885.214	114
891.164	118
897.108	122
903.046	140
908.977	134
914.903	114
920.822	104
926.735	94
932.643	94
938.543	106
944.439	100
950.328	96
956.21	108
962.088	118
967.958	126
973.824	140
979.682	184
985.534	262
991.382	766
997.222	1210
1003.06	2874
1008.89	462
1014.71	188
1020.53	232
1026.34	488
1032.14	904
1037.94	424
1043.73	194
1049.52	156
1055.3	148
1061.08	158
1066.85	170
1072.61	184
1078.37	166
1084.12	160
1089.87	158
1095.61	180
1101.34	162
1107.07	140
1112.8	134
1118.51	128
1124.22	114
1129.93	108
1135.63	112
1141.32	126
1147.01	178
1152.69	358
1158.37	348
1164.04	226
1169.71	214
1175.37	310
1181.02	522
1186.67	430
1192.31	480
1197.95	482
1203.58	424
1209.2	338
1214.82	228
1220.44	200
1226.05	208
1231.65	184
1237.25	172
1242.84	172
1248.42	162
1254	164
1259.58	182
1265.15	178
1270.71	174
1276.27	156
1281.82	176
1287.37	176
1292.91	184
1298.45	202
1303.98	208
1309.5	222
1315.02	250
1320.53	282
1326.04	290
1331.54	292
1337.04	274
1342.53	266
1348.02	268
1353.5	266
1358.98	256
1364.45	270
1369.91	278
1375.37	264
1380.82	256
1386.27	256
1391.71	232
1397.15	234
1402.58	212
1408.01	234
1413.43	224
1418.85	208
1424.26	210
1429.66	226
1435.06	244
1440.46	268
1445.85	310
1451.23	314
1456.61	266
1461.98	210
1467.35	194
1472.71	184
1478.07	184
1483.42	170
1488.77	172
1494.11	192
1499.45	176
1504.78	160
1510.11	156
1515.43	160
1520.74	162
1526.05	160
1531.36	150
1536.66	160
1541.95	158
1547.24	158
1552.52	162
1557.8	166
1563.08	170
1568.35	172
1573.61	190
1578.87	274
1584.12	398
1589.37	244
1594.61	312
1599.85	620
1605.08	540
1610.31	282
1615.53	192
1620.75	172
1625.96	150
1631.17	140
1636.37	152
1641.57	154
1646.76	158
1651.95	142
1657.13	144
1662.31	118
1667.48	136
1672.65	120
1677.81	128
1682.97	122
1688.12	122
1693.27	124
1698.41	120
1702.26	118