File: Mixture_Classification/Jesse_Dataset_v2/Pure Raman/Polystyrene/785nm/ps-ppo-6jan25-1,0000-map3_Y07_X10.txt
204.377	844
211.048	884
217.712	876
224.369	884
231.019	734
237.661	524
244.297	386
250.924	312
257.546	282
264.16	254
270.766	258
277.365	228
283.958	220
290.543	182
297.121	170
303.693	174
310.256	182
316.813	168
323.362	170
329.905	182
336.441	172
342.969	154
349.491	154
356.006	136
362.513	162
369.014	160
375.508	154
381.994	178
388.473	196
394.947	192
401.412	222
407.871	234
414.323	202
420.768	172
427.206	152
433.637	140
440.062	148
446.479	134
452.89	116
459.293	114
465.691	114
472.081	108
478.463	104
484.84	102
491.21	100
497.573	100
503.929	106
510.279	96
516.621	110
522.957	118
529.287	116
535.609	134
541.925	146
548.234	146
554.536	136
560.832	138
567.12	136
573.403	140
579.679	128
585.948	114
592.211	112
598.466	110
604.715	136
610.958	152
617.194	344
623.424	468
629.647	146
635.864	100
642.074	92
648.276	76
654.473	78
660.664	76
666.847	80
673.025	76
679.195	82
685.36	82
691.517	82
697.669	98
703.814	100
709.953	98
716.085	98
722.21	132
728.33	132
734.443	130
740.549	182
746.65	176
752.743	198
758.831	222
764.912	228
770.986	206
777.055	212
783.117	240
789.173	308
795.222	350
801.265	278
807.302	206
813.333	166
819.357	126
825.376	116
831.387	110
837.392	144
843.392	142
849.386	128
855.372	136
861.353	116
867.328	124
873.296	134
879.258	110
885.214	112
891.164	110
897.108	124
903.046	158
908.977	136
914.903	124
920.822	108
926.735	102
932.643	88
938.543	98
944.439	98
950.328	106
956.21	104
962.088	128
967.958	130
973.824	128
979.682	188
985.534	302
991.382	828
997.222	1220
1003.06	2848
1008.89	440
1014.71	180
1020.53	224
1026.34	500
1032.14	892
1037.94	412
1043.73	222
1049.52	172
1055.3	146
1061.08	164
1066.85	170
1072.61	172
1078.37	168
1084.12	154
1089.87	172
1095.61	168
1101.34	162
1107.07	144
1112.8	140
1118.51	120
1124.22	112
1129.93	114
1135.63	116
1141.32	136
1147.01	166
1152.69	354
1158.37	336
1164.04	208
1169.71	224
1175.37	310
1181.02	530
1186.67	450
1192.31	478
1197.95	512
1203.58	432
1209.2	328
1214.82	240
1220.44	222
1226.05	192
1231.65	166
1237.25	174
1242.84	176
1248.42	164
1254	174
1259.58	170
1265.15	172
1270.71	182
1276.27	180
1281.82	176
1287.37	188
1292.91	202
1298.45	216
1303.98	228
1309.5	242
1315.02	258
1320.53	286
1326.04	312
1331.54	316
1337.04	272
1342.53	272
1348.02	274
1353.5	286
1358.98	282
1364.45	284
1369.91	278
1375.37	290
1380.82	280
1386.27	278
1391.71	256
1397.15	262
1402.58	238
1408.01	244
1413.43	228
1418.85	224
1424.26	236
1429.66	240
1435.06	238
1440.46	292
1445.85	342
1451.23	324
1456.61	286
1461.98	222
1467.35	204
1472.71	196
1478.07	200
1483.42	190
1488.77	186
1494.11	198
1499.45	190
1504.78	174
1510.11	178
1515.43	172
1520.74	176
1526.05	180
1531.36	164
1536.66	164
1541.95	164
1547.24	166
1552.52	178
1557.8	168
1563.08	188
1568.35	186
1573.61	194
1578.87	284
1584.12	396
1589.37	262
1594.61	306
1599.85	632
1605.08	576
1610.31	288
1615.53	204
1620.75	170
1625.96	174
1631.17	156
1636.37	144
1641.57	148
1646.76	158
1651.95	158
1657.13	134
1662.31	138
1667.48	136
1672.65	140
1677.81	134
1682.97	142
1688.12	126
1693.27	134
1698.41	120
1702.26	126