File: Mixture_Classification/Jesse_Dataset_v2/Pure Raman/Polystyrene/785nm/ps-ppo-6jan25-1,0000-map3_Y05_X06.txt
204.377	824
211.048	922
217.712	930
224.369	896
231.019	734
237.661	544
244.297	400
250.924	298
257.546	284
264.16	258
270.766	250
277.365	212
283.958	224
290.543	178
297.121	182
303.693	168
310.256	166
316.813	158
323.362	180
329.905	178
336.441	174
342.969	154
349.491	146
356.006	150
362.513	144
369.014	160
375.508	158
381.994	162
388.473	180
394.947	190
401.412	212
407.871	240
414.323	186
420.768	158
427.206	150
433.637	142
440.062	134
446.479	126
452.89	118
459.293	106
465.691	104
472.081	94
478.463	100
484.84	102
491.21	98
497.573	108
503.929	112
510.279	106
516.621	114
522.957	120
529.287	110
535.609	122
541.925	154
548.234	138
554.536	134
560.832	130
567.12	142
573.403	144
579.679	126
585.948	106
592.211	112
598.466	116
604.715	128
610.958	148
617.194	324
623.424	468
629.647	148
635.864	108
642.074	80
648.276	68
654.473	78
660.664	84
666.847	72
673.025	74
679.195	76
685.36	76
691.517	78
697.669	78
703.814	98
709.953	96
716.085	92
722.21	134
728.33	124
734.443	138
740.549	192
746.65	180
752.743	216
758.831	218
764.912	230
770.986	190
777.055	204
783.117	232
789.173	308
795.222	336
801.265	280
807.302	194
813.333	154
819.357	136
825.376	104
831.387	120
837.392	138
843.392	160
849.386	132
855.372	126
861.353	116
867.328	120
873.296	118
879.258	108
885.214	110
891.164	114
897.108	126
903.046	126
908.977	130
914.903	118
920.822	102
926.735	100
932.643	94
938.543	92
944.439	96
950.328	96
956.21	102
962.088	128
967.958	132
973.824	144
979.682	170
985.534	270
991.382	740
997.222	1230
1003.06	2948
1008.89	438
1014.71	190
1020.53	230
1026.34	472
1032.14	906
1037.94	426
1043.73	198
1049.52	168
1055.3	146
1061.08	170
1066.85	172
1072.61	168
1078.37	158
1084.12	176
1089.87	156
1095.61	158
1101.34	168
1107.07	132
1112.8	126
1118.51	118
1124.22	112
1129.93	112
1135.63	114
1141.32	132
1147.01	164
1152.69	352
1158.37	352
1164.04	216
1169.71	218
1175.37	280
1181.02	520
1186.67	440
1192.31	476
1197.95	490
1203.58	436
1209.2	306
1214.82	250
1220.44	206
1226.05	184
1231.65	178
1237.25	182
1242.84	174
1248.42	162
1254	152
1259.58	160
1265.15	164
1270.71	172
1276.27	172
1281.82	170
1287.37	182
1292.91	182
1298.45	208
1303.98	220
1309.5	238
1315.02	242
1320.53	282
1326.04	310
1331.54	302
1337.04	302
1342.53	264
1348.02	274
1353.5	258
1358.98	276
1364.45	272
1369.91	290
1375.37	280
1380.82	276
1386.27	248
1391.71	230
1397.15	228
1402.58	232
1408.01	236
1413.43	226
1418.85	228
1424.26	228
1429.66	228
1435.06	242
1440.46	274
1445.85	322
1451.23	332
1456.61	288
1461.98	218
1467.35	194
1472.71	198
1478.07	196
1483.42	186
1488.77	190
1494.11	188
1499.45	174
1504.78	170
1510.11	166
1515.43	166
1520.74	166
1526.05	166
1531.36	162
1536.66	166
1541.95	162
1547.24	152
1552.52	162
1557.8	182
1563.08	164
1568.35	176
1573.61	202
1578.87	268
1584.12	410
1589.37	244
1594.61	308
1599.85	612
1605.08	558
1610.31	284
1615.53	192
1620.75	166
1625.96	162
1631.17	150
1636.37	148
1641.57	162
1646.76	166
1651.95	138
1657.13	140
1662.31	126
1667.48	138
1672.65	130
1677.81	136
1682.97	132
1688.12	118
1693.27	120
1698.41	124
1702.26	122