File: Mixture_Classification/Jesse_Dataset_v2/Pure Raman/Polystyrene/785nm/ps-ppo-6jan25-1,0000-map3_Y01_X01.txt
204.377	804
211.048	842
217.712	884
224.369	882
231.019	708
237.661	552
244.297	374
250.924	300
257.546	278
264.16	250
270.766	242
277.365	208
283.958	212
290.543	180
297.121	170
303.693	156
310.256	164
316.813	170
323.362	154
329.905	166
336.441	166
342.969	160
349.491	144
356.006	144
362.513	148
369.014	146
375.508	154
381.994	168
388.473	182
394.947	178
401.412	202
407.871	222
414.323	196
420.768	168
427.206	146
433.637	130
440.062	138
446.479	132
452.89	104
459.293	94
465.691	106
472.081	110
478.463	96
484.84	96
491.21	86
497.573	102
503.929	110
510.279	102
516.621	116
522.957	104
529.287	114
535.609	146
541.925	144
548.234	132
554.536	132
560.832	120
567.12	136
573.403	132
579.679	114
585.948	108
592.211	110
598.466	116
604.715	136
610.958	150
617.194	300
623.424	464
629.647	144
635.864	100
642.074	82
648.276	76
654.473	74
660.664	70
666.847	72
673.025	70
679.195	78
685.36	74
691.517	82
697.669	80
703.814	98
709.953	94
716.085	90
722.21	126
728.33	124
734.443	114
740.549	182
746.65	188
752.743	192
758.831	222
764.912	220
770.986	200
777.055	196
783.117	228
789.173	308
795.222	326
801.265	276
807.302	196
813.333	158
819.357	128
825.376	112
831.387	102
837.392	134
843.392	148
849.386	124
855.372	128
861.353	120
867.328	120
873.296	120
879.258	112
885.214	106
891.164	114
897.108	120
903.046	138
908.977	144
914.903	122
920.822	96
926.735	100
932.643	84
938.543	94
944.439	100
950.328	98
956.21	104
962.088	116
967.958	126
973.824	130
979.682	166
985.534	268
991.382	738
997.222	1196
1003.06	2930
1008.89	446
1014.71	194
1020.53	218
1026.34	468
1032.14	920
1037.94	408
1043.73	194
1049.52	160
1055.3	148
1061.08	144
1066.85	172
1072.61	168
1078.37	158
1084.12	162
1089.87	154
1095.61	172
1101.34	168
1107.07	138
1112.8	124
1118.51	126
1124.22	108
1129.93	104
1135.63	122
1141.32	126
1147.01	152
1152.69	366
1158.37	334
1164.04	204
1169.71	206
1175.37	316
1181.02	528
1186.67	446
1192.31	458
1197.95	494
1203.58	422
1209.2	314
1214.82	236
1220.44	198
1226.05	196
1231.65	172
1237.25	174
1242.84	166
1248.42	154
1254	166
1259.58	164
1265.15	166
1270.71	166
1276.27	168
1281.82	184
1287.37	168
1292.91	192
1298.45	184
1303.98	198
1309.5	240
1315.02	236
1320.53	250
1326.04	274
1331.54	294
1337.04	272
1342.53	264
1348.02	252
1353.5	232
1358.98	270
1364.45	268
1369.91	268
1375.37	262
1380.82	252
1386.27	236
1391.71	226
1397.15	222
1402.58	222
1408.01	210
1413.43	218
1418.85	204
1424.26	204
1429.66	224
1435.06	236
1440.46	272
1445.85	310
1451.23	292
1456.61	262
1461.98	192
1467.35	198
1472.71	172
1478.07	180
1483.42	168
1488.77	170
1494.11	178
1499.45	158
1504.78	160
1510.11	166
1515.43	156
1520.74	158
1526.05	158
1531.36	148
1536.66	158
1541.95	160
1547.24	164
1552.52	158
1557.8	150
1563.08	158
1568.35	178
1573.61	190
1578.87	272
1584.12	380
1589.37	230
1594.61	296
1599.85	610
1605.08	566
1610.31	268
1615.53	176
1620.75	172
1625.96	150
1631.17	150
1636.37	142
1641.57	136
1646.76	142
1651.95	142
1657.13	128
1662.31	124
1667.48	130
1672.65	124
1677.81	118
1682.97	120
1688.12	120
1693.27	114
1698.41	116
1702.26	112