File: Mixture_Classification/Jesse_Dataset_v2/Pure Raman/Polystyrene/785nm/ps-ppo-6jan25-1,0000-map3_Y00_X05.txt
204.377	838
211.048	860
217.712	906
224.369	894
231.019	714
237.661	522
244.297	376
250.924	290
257.546	278
264.16	252
270.766	240
277.365	230
283.958	206
290.543	192
297.121	172
303.693	174
310.256	156
316.813	170
323.362	172
329.905	162
336.441	176
342.969	148
349.491	148
356.006	152
362.513	132
369.014	162
375.508	160
381.994	162
388.473	178
394.947	178
401.412	206
407.871	232
414.323	188
420.768	164
427.206	150
433.637	142
440.062	142
446.479	126
452.89	114
459.293	98
465.691	104
472.081	96
478.463	90
484.84	88
491.21	88
497.573	102
503.929	108
510.279	106
516.621	110
522.957	108
529.287	126
535.609	136
541.925	146
548.234	146
554.536	132
560.832	126
567.12	130
573.403	136
579.679	120
585.948	102
592.211	112
598.466	112
604.715	134
610.958	146
617.194	306
623.424	464
629.647	150
635.864	106
642.074	82
648.276	82
654.473	80
660.664	70
666.847	82
673.025	74
679.195	74
685.36	76
691.517	70
697.669	78
703.814	104
709.953	98
716.085	86
722.21	128
728.33	118
734.443	130
740.549	176
746.65	182
752.743	206
758.831	238
764.912	214
770.986	214
777.055	200
783.117	230
789.173	302
795.222	358
801.265	274
807.302	198
813.333	154
819.357	124
825.376	112
831.387	106
837.392	136
843.392	158
849.386	134
855.372	120
861.353	122
867.328	118
873.296	126
879.258	116
885.214	126
891.164	110
897.108	114
903.046	140
908.977	146
914.903	118
920.822	104
926.735	94
932.643	92
938.543	100
944.439	94
950.328	92
956.21	100
962.088	124
967.958	130
973.824	132
979.682	182
985.534	276
991.382	750
997.222	1202
1003.06	2898
1008.89	442
1014.71	192
1020.53	218
1026.34	496
1032.14	908
1037.94	400
1043.73	196
1049.52	162
1055.3	160
1061.08	156
1066.85	166
1072.61	168
1078.37	162
1084.12	164
1089.87	168
1095.61	172
1101.34	158
1107.07	138
1112.8	120
1118.51	122
1124.22	108
1129.93	108
1135.63	110
1141.32	134
1147.01	166
1152.69	346
1158.37	348
1164.04	204
1169.71	204
1175.37	298
1181.02	506
1186.67	428
1192.31	478
1197.95	480
1203.58	450
1209.2	320
1214.82	226
1220.44	210
1226.05	206
1231.65	168
1237.25	166
1242.84	174
1248.42	164
1254	174
1259.58	174
1265.15	174
1270.71	170
1276.27	174
1281.82	178
1287.37	172
1292.91	180
1298.45	202
1303.98	222
1309.5	226
1315.02	236
1320.53	262
1326.04	294
1331.54	292
1337.04	288
1342.53	256
1348.02	268
1353.5	254
1358.98	264
1364.45	270
1369.91	284
1375.37	276
1380.82	256
1386.27	236
1391.71	228
1397.15	232
1402.58	232
1408.01	218
1413.43	214
1418.85	220
1424.26	204
1429.66	226
1435.06	242
1440.46	272
1445.85	322
1451.23	320
1456.61	264
1461.98	210
1467.35	194
1472.71	186
1478.07	182
1483.42	170
1488.77	178
1494.11	188
1499.45	168
1504.78	154
1510.11	164
1515.43	150
1520.74	154
1526.05	164
1531.36	166
1536.66	152
1541.95	152
1547.24	164
1552.52	156
1557.8	166
1563.08	162
1568.35	176
1573.61	190
1578.87	270
1584.12	388
1589.37	248
1594.61	288
1599.85	640
1605.08	560
1610.31	254
1615.53	196
1620.75	184
1625.96	162
1631.17	144
1636.37	146
1641.57	142
1646.76	160
1651.95	136
1657.13	140
1662.31	136
1667.48	132
1672.65	124
1677.81	112
1682.97	126
1688.12	128
1693.27	114
1698.41	118
1702.26	116