File: Mixture_Classification/Jesse_Dataset_v2/Pure Raman/Polystyrene/785nm/ps-ppo-6jan25-1,0000-map3_Y06_X08.txt
204.377	874
211.048	900
217.712	950
224.369	878
231.019	716
237.661	538
244.297	366
250.924	320
257.546	302
264.16	260
270.766	244
277.365	244
283.958	208
290.543	188
297.121	172
303.693	170
310.256	178
316.813	192
323.362	176
329.905	180
336.441	156
342.969	170
349.491	154
356.006	150
362.513	172
369.014	150
375.508	156
381.994	178
388.473	186
394.947	192
401.412	220
407.871	228
414.323	208
420.768	182
427.206	154
433.637	158
440.062	138
446.479	138
452.89	122
459.293	112
465.691	108
472.081	110
478.463	102
484.84	104
491.21	110
497.573	112
503.929	120
510.279	116
516.621	110
522.957	136
529.287	118
535.609	146
541.925	156
548.234	154
554.536	140
560.832	132
567.12	128
573.403	156
579.679	130
585.948	114
592.211	116
598.466	124
604.715	130
610.958	152
617.194	340
623.424	484
629.647	146
635.864	104
642.074	90
648.276	76
654.473	84
660.664	74
666.847	82
673.025	76
679.195	80
685.36	82
691.517	80
697.669	88
703.814	100
709.953	94
716.085	92
722.21	140
728.33	132
734.443	138
740.549	190
746.65	198
752.743	192
758.831	236
764.912	218
770.986	210
777.055	214
783.117	238
789.173	278
795.222	354
801.265	290
807.302	194
813.333	168
819.357	134
825.376	122
831.387	124
837.392	162
843.392	154
849.386	144
855.372	124
861.353	130
867.328	134
873.296	138
879.258	110
885.214	116
891.164	104
897.108	132
903.046	146
908.977	152
914.903	126
920.822	102
926.735	108
932.643	104
938.543	102
944.439	96
950.328	108
956.21	102
962.088	130
967.958	136
973.824	148
979.682	190
985.534	280
991.382	778
997.222	1248
1003.06	2814
1008.89	420
1014.71	200
1020.53	234
1026.34	500
1032.14	878
1037.94	416
1043.73	204
1049.52	176
1055.3	166
1061.08	160
1066.85	168
1072.61	174
1078.37	170
1084.12	174
1089.87	158
1095.61	160
1101.34	160
1107.07	152
1112.8	138
1118.51	126
1124.22	116
1129.93	112
1135.63	120
1141.32	136
1147.01	178
1152.69	370
1158.37	344
1164.04	218
1169.71	212
1175.37	312
1181.02	492
1186.67	454
1192.31	484
1197.95	520
1203.58	456
1209.2	344
1214.82	236
1220.44	220
1226.05	212
1231.65	198
1237.25	178
1242.84	168
1248.42	184
1254	172
1259.58	180
1265.15	182
1270.71	176
1276.27	182
1281.82	180
1287.37	182
1292.91	196
1298.45	218
1303.98	228
1309.5	234
1315.02	264
1320.53	272
1326.04	324
1331.54	314
1337.04	284
1342.53	268
1348.02	270
1353.5	278
1358.98	262
1364.45	288
1369.91	300
1375.37	286
1380.82	272
1386.27	244
1391.71	252
1397.15	236
1402.58	238
1408.01	228
1413.43	234
1418.85	228
1424.26	216
1429.66	248
1435.06	248
1440.46	286
1445.85	334
1451.23	340
1456.61	278
1461.98	228
1467.35	210
1472.71	192
1478.07	190
1483.42	194
1488.77	186
1494.11	182
1499.45	184
1504.78	174
1510.11	172
1515.43	176
1520.74	156
1526.05	166
1531.36	174
1536.66	162
1541.95	158
1547.24	178
1552.52	170
1557.8	170
1563.08	182
1568.35	172
1573.61	210
1578.87	288
1584.12	404
1589.37	262
1594.61	318
1599.85	612
1605.08	544
1610.31	266
1615.53	214
1620.75	188
1625.96	174
1631.17	166
1636.37	164
1641.57	158
1646.76	160
1651.95	156
1657.13	146
1662.31	132
1667.48	138
1672.65	126
1677.81	134
1682.97	136
1688.12	128
1693.27	126
1698.41	124
1702.26	126