File: Mixture_Classification/Jesse_Dataset_v2/Pure Raman/Polystyrene/785nm/ps-ppo-6jan25-1,0000-map3_Y02_X07.txt
204.377	824
211.048	904
217.712	910
224.369	862
231.019	738
237.661	540
244.297	392
250.924	310
257.546	278
264.16	268
270.766	240
277.365	244
283.958	216
290.543	186
297.121	162
303.693	154
310.256	170
316.813	164
323.362	168
329.905	158
336.441	164
342.969	158
349.491	150
356.006	140
362.513	146
369.014	154
375.508	148
381.994	172
388.473	182
394.947	184
401.412	218
407.871	228
414.323	184
420.768	162
427.206	158
433.637	132
440.062	122
446.479	126
452.89	112
459.293	106
465.691	106
472.081	102
478.463	104
484.84	92
491.21	96
497.573	98
503.929	108
510.279	104
516.621	104
522.957	110
529.287	120
535.609	132
541.925	146
548.234	142
554.536	140
560.832	130
567.12	130
573.403	148
579.679	116
585.948	102
592.211	106
598.466	110
604.715	124
610.958	148
617.194	328
623.424	474
629.647	138
635.864	110
642.074	80
648.276	76
654.473	76
660.664	72
666.847	74
673.025	70
679.195	70
685.36	78
691.517	80
697.669	88
703.814	98
709.953	94
716.085	94
722.21	128
728.33	126
734.443	130
740.549	180
746.65	176
752.743	202
758.831	260
764.912	216
770.986	204
777.055	194
783.117	238
789.173	318
795.222	326
801.265	276
807.302	184
813.333	154
819.357	124
825.376	112
831.387	120
837.392	144
843.392	174
849.386	138
855.372	138
861.353	126
867.328	126
873.296	118
879.258	118
885.214	108
891.164	104
897.108	124
903.046	134
908.977	146
914.903	108
920.822	98
926.735	94
932.643	100
938.543	104
944.439	102
950.328	108
956.21	104
962.088	120
967.958	136
973.824	126
979.682	188
985.534	278
991.382	754
997.222	1218
1003.06	2824
1008.89	458
1014.71	198
1020.53	212
1026.34	478
1032.14	940
1037.94	414
1043.73	220
1049.52	166
1055.3	158
1061.08	150
1066.85	170
1072.61	180
1078.37	164
1084.12	162
1089.87	158
1095.61	168
1101.34	176
1107.07	148
1112.8	126
1118.51	118
1124.22	114
1129.93	100
1135.63	106
1141.32	134
1147.01	166
1152.69	354
1158.37	352
1164.04	218
1169.71	224
1175.37	292
1181.02	522
1186.67	434
1192.31	470
1197.95	494
1203.58	454
1209.2	314
1214.82	228
1220.44	200
1226.05	206
1231.65	180
1237.25	176
1242.84	170
1248.42	160
1254	164
1259.58	162
1265.15	158
1270.71	178
1276.27	162
1281.82	172
1287.37	184
1292.91	196
1298.45	210
1303.98	212
1309.5	230
1315.02	250
1320.53	278
1326.04	286
1331.54	304
1337.04	276
1342.53	262
1348.02	268
1353.5	258
1358.98	258
1364.45	262
1369.91	274
1375.37	270
1380.82	276
1386.27	246
1391.71	248
1397.15	232
1402.58	242
1408.01	232
1413.43	218
1418.85	224
1424.26	230
1429.66	228
1435.06	232
1440.46	272
1445.85	332
1451.23	330
1456.61	272
1461.98	218
1467.35	194
1472.71	182
1478.07	188
1483.42	174
1488.77	176
1494.11	182
1499.45	180
1504.78	156
1510.11	164
1515.43	166
1520.74	166
1526.05	158
1531.36	160
1536.66	152
1541.95	162
1547.24	160
1552.52	156
1557.8	150
1563.08	158
1568.35	176
1573.61	202
1578.87	270
1584.12	382
1589.37	248
1594.61	312
1599.85	630
1605.08	560
1610.31	292
1615.53	210
1620.75	188
1625.96	164
1631.17	156
1636.37	140
1641.57	154
1646.76	158
1651.95	150
1657.13	146
1662.31	128
1667.48	124
1672.65	128
1677.81	120
1682.97	128
1688.12	126
1693.27	106
1698.41	120
1702.26	120