File: Mixture_Classification/Jesse_Dataset_v2/Pure Raman/Polystyrene/785nm/ps-ppo-6jan25-1,0000-map3_Y10_X03.txt
204.377	834
211.048	890
217.712	916
224.369	870
231.019	706
237.661	554
244.297	382
250.924	320
257.546	272
264.16	266
270.766	264
277.365	220
283.958	190
290.543	188
297.121	176
303.693	166
310.256	172
316.813	172
323.362	156
329.905	172
336.441	160
342.969	170
349.491	152
356.006	150
362.513	152
369.014	146
375.508	156
381.994	158
388.473	188
394.947	196
401.412	202
407.871	226
414.323	188
420.768	172
427.206	152
433.637	152
440.062	128
446.479	134
452.89	112
459.293	104
465.691	112
472.081	100
478.463	98
484.84	100
491.21	96
497.573	100
503.929	114
510.279	106
516.621	98
522.957	116
529.287	124
535.609	144
541.925	164
548.234	136
554.536	140
560.832	136
567.12	130
573.403	132
579.679	122
585.948	108
592.211	110
598.466	116
604.715	144
610.958	150
617.194	318
623.424	446
629.647	140
635.864	102
642.074	88
648.276	86
654.473	84
660.664	76
666.847	72
673.025	74
679.195	78
685.36	72
691.517	78
697.669	82
703.814	94
709.953	92
716.085	96
722.21	142
728.33	134
734.443	124
740.549	182
746.65	174
752.743	202
758.831	242
764.912	214
770.986	202
777.055	200
783.117	234
789.173	310
795.222	340
801.265	280
807.302	184
813.333	160
819.357	124
825.376	112
831.387	108
837.392	144
843.392	154
849.386	140
855.372	128
861.353	124
867.328	116
873.296	120
879.258	116
885.214	102
891.164	120
897.108	120
903.046	136
908.977	150
914.903	116
920.822	100
926.735	88
932.643	102
938.543	108
944.439	96
950.328	100
956.21	106
962.088	118
967.958	128
973.824	138
979.682	192
985.534	282
991.382	786
997.222	1224
1003.06	2914
1008.89	440
1014.71	192
1020.53	224
1026.34	500
1032.14	872
1037.94	398
1043.73	204
1049.52	158
1055.3	152
1061.08	152
1066.85	172
1072.61	168
1078.37	164
1084.12	184
1089.87	162
1095.61	178
1101.34	164
1107.07	146
1112.8	134
1118.51	124
1124.22	102
1129.93	116
1135.63	114
1141.32	128
1147.01	164
1152.69	342
1158.37	346
1164.04	214
1169.71	210
1175.37	298
1181.02	512
1186.67	428
1192.31	468
1197.95	498
1203.58	442
1209.2	306
1214.82	230
1220.44	206
1226.05	182
1231.65	186
1237.25	174
1242.84	162
1248.42	170
1254	164
1259.58	170
1265.15	180
1270.71	166
1276.27	174
1281.82	176
1287.37	166
1292.91	196
1298.45	210
1303.98	220
1309.5	216
1315.02	232
1320.53	278
1326.04	288
1331.54	278
1337.04	278
1342.53	266
1348.02	258
1353.5	270
1358.98	250
1364.45	284
1369.91	270
1375.37	284
1380.82	264
1386.27	246
1391.71	234
1397.15	230
1402.58	222
1408.01	236
1413.43	228
1418.85	226
1424.26	222
1429.66	210
1435.06	260
1440.46	294
1445.85	326
1451.23	338
1456.61	254
1461.98	212
1467.35	192
1472.71	182
1478.07	192
1483.42	180
1488.77	192
1494.11	192
1499.45	174
1504.78	174
1510.11	156
1515.43	168
1520.74	156
1526.05	170
1531.36	166
1536.66	168
1541.95	164
1547.24	166
1552.52	158
1557.8	164
1563.08	166
1568.35	176
1573.61	180
1578.87	262
1584.12	406
1589.37	250
1594.61	312
1599.85	606
1605.08	534
1610.31	268
1615.53	210
1620.75	176
1625.96	146
1631.17	156
1636.37	146
1641.57	144
1646.76	160
1651.95	148
1657.13	126
1662.31	126
1667.48	128
1672.65	132
1677.81	134
1682.97	132
1688.12	122
1693.27	126
1698.41	132
1702.26	124