File: Mixture_Classification/Jesse_Dataset_v2/Pure Raman/Polystyrene/785nm/ps-ppo-6jan25-1,0000-map3_Y10_X04.txt
204.377	844
211.048	870
217.712	918
224.369	876
231.019	736
237.661	538
244.297	364
250.924	298
257.546	276
264.16	274
270.766	248
277.365	234
283.958	210
290.543	202
297.121	180
303.693	170
310.256	166
316.813	174
323.362	164
329.905	168
336.441	168
342.969	166
349.491	156
356.006	154
362.513	158
369.014	150
375.508	148
381.994	166
388.473	184
394.947	172
401.412	208
407.871	224
414.323	206
420.768	178
427.206	152
433.637	148
440.062	134
446.479	134
452.89	122
459.293	108
465.691	106
472.081	108
478.463	100
484.84	96
491.21	96
497.573	102
503.929	108
510.279	102
516.621	106
522.957	112
529.287	120
535.609	146
541.925	154
548.234	152
554.536	138
560.832	134
567.12	138
573.403	140
579.679	118
585.948	104
592.211	104
598.466	118
604.715	126
610.958	142
617.194	316
623.424	466
629.647	140
635.864	116
642.074	86
648.276	84
654.473	74
660.664	76
666.847	78
673.025	78
679.195	80
685.36	68
691.517	76
697.669	92
703.814	96
709.953	98
716.085	96
722.21	134
728.33	128
734.443	134
740.549	182
746.65	190
752.743	222
758.831	236
764.912	220
770.986	194
777.055	204
783.117	232
789.173	308
795.222	366
801.265	280
807.302	186
813.333	154
819.357	132
825.376	108
831.387	116
837.392	144
843.392	162
849.386	138
855.372	130
861.353	114
867.328	118
873.296	120
879.258	106
885.214	112
891.164	112
897.108	110
903.046	144
908.977	136
914.903	120
920.822	98
926.735	96
932.643	92
938.543	94
944.439	92
950.328	96
956.21	98
962.088	126
967.958	134
973.824	122
979.682	186
985.534	272
991.382	782
997.222	1230
1003.06	2870
1008.89	438
1014.71	194
1020.53	218
1026.34	484
1032.14	908
1037.94	408
1043.73	208
1049.52	156
1055.3	152
1061.08	158
1066.85	174
1072.61	174
1078.37	162
1084.12	170
1089.87	162
1095.61	172
1101.34	158
1107.07	138
1112.8	126
1118.51	116
1124.22	104
1129.93	104
1135.63	112
1141.32	144
1147.01	168
1152.69	378
1158.37	350
1164.04	200
1169.71	214
1175.37	308
1181.02	506
1186.67	424
1192.31	492
1197.95	506
1203.58	428
1209.2	324
1214.82	224
1220.44	214
1226.05	210
1231.65	192
1237.25	172
1242.84	162
1248.42	168
1254	158
1259.58	166
1265.15	180
1270.71	168
1276.27	170
1281.82	168
1287.37	196
1292.91	208
1298.45	220
1303.98	216
1309.5	222
1315.02	256
1320.53	274
1326.04	298
1331.54	296
1337.04	292
1342.53	272
1348.02	252
1353.5	260
1358.98	270
1364.45	274
1369.91	276
1375.37	294
1380.82	262
1386.27	252
1391.71	244
1397.15	238
1402.58	228
1408.01	236
1413.43	224
1418.85	228
1424.26	214
1429.66	228
1435.06	242
1440.46	280
1445.85	318
1451.23	318
1456.61	274
1461.98	216
1467.35	208
1472.71	188
1478.07	184
1483.42	180
1488.77	176
1494.11	202
1499.45	174
1504.78	158
1510.11	162
1515.43	164
1520.74	152
1526.05	164
1531.36	170
1536.66	166
1541.95	152
1547.24	156
1552.52	172
1557.8	156
1563.08	176
1568.35	182
1573.61	202
1578.87	270
1584.12	426
1589.37	238
1594.61	312
1599.85	606
1605.08	540
1610.31	272
1615.53	202
1620.75	162
1625.96	170
1631.17	158
1636.37	140
1641.57	144
1646.76	158
1651.95	150
1657.13	150
1662.31	126
1667.48	138
1672.65	132
1677.81	124
1682.97	122
1688.12	134
1693.27	132
1698.41	126
1702.26	122