File: Mixture_Classification/Jesse_Dataset_v2/Pure Raman/Polystyrene/785nm/ps-ppo-6jan25-1,0000-map3_Y03_X03.txt
204.377	840
211.048	890
217.712	942
224.369	872
231.019	728
237.661	554
244.297	416
250.924	330
257.546	296
264.16	288
270.766	254
277.365	258
283.958	222
290.543	196
297.121	182
303.693	176
310.256	188
316.813	186
323.362	186
329.905	180
336.441	176
342.969	168
349.491	158
356.006	162
362.513	154
369.014	160
375.508	160
381.994	186
388.473	196
394.947	202
401.412	212
407.871	240
414.323	200
420.768	170
427.206	152
433.637	144
440.062	146
446.479	140
452.89	128
459.293	104
465.691	120
472.081	118
478.463	114
484.84	108
491.21	110
497.573	102
503.929	120
510.279	120
516.621	110
522.957	128
529.287	124
535.609	158
541.925	156
548.234	146
554.536	138
560.832	146
567.12	148
573.403	150
579.679	130
585.948	112
592.211	108
598.466	124
604.715	138
610.958	152
617.194	320
623.424	470
629.647	154
635.864	114
642.074	98
648.276	90
654.473	90
660.664	80
666.847	86
673.025	76
679.195	78
685.36	80
691.517	80
697.669	82
703.814	102
709.953	100
716.085	94
722.21	130
728.33	134
734.443	140
740.549	184
746.65	196
752.743	208
758.831	242
764.912	224
770.986	190
777.055	200
783.117	242
789.173	298
795.222	364
801.265	272
807.302	194
813.333	170
819.357	128
825.376	122
831.387	124
837.392	152
843.392	160
849.386	132
855.372	136
861.353	126
867.328	130
873.296	124
879.258	122
885.214	112
891.164	116
897.108	112
903.046	136
908.977	136
914.903	114
920.822	110
926.735	100
932.643	108
938.543	100
944.439	104
950.328	100
956.21	100
962.088	128
967.958	132
973.824	142
979.682	186
985.534	282
991.382	736
997.222	1224
1003.06	2886
1008.89	458
1014.71	200
1020.53	210
1026.34	500
1032.14	906
1037.94	402
1043.73	222
1049.52	174
1055.3	146
1061.08	162
1066.85	180
1072.61	186
1078.37	174
1084.12	170
1089.87	166
1095.61	174
1101.34	168
1107.07	146
1112.8	142
1118.51	122
1124.22	106
1129.93	120
1135.63	124
1141.32	128
1147.01	178
1152.69	360
1158.37	358
1164.04	224
1169.71	238
1175.37	310
1181.02	528
1186.67	452
1192.31	482
1197.95	514
1203.58	456
1209.2	322
1214.82	224
1220.44	214
1226.05	200
1231.65	172
1237.25	166
1242.84	176
1248.42	164
1254	170
1259.58	166
1265.15	174
1270.71	178
1276.27	178
1281.82	188
1287.37	194
1292.91	196
1298.45	210
1303.98	216
1309.5	234
1315.02	248
1320.53	272
1326.04	280
1331.54	280
1337.04	288
1342.53	268
1348.02	272
1353.5	254
1358.98	258
1364.45	262
1369.91	276
1375.37	252
1380.82	262
1386.27	244
1391.71	230
1397.15	232
1402.58	226
1408.01	234
1413.43	214
1418.85	224
1424.26	220
1429.66	214
1435.06	230
1440.46	270
1445.85	310
1451.23	330
1456.61	284
1461.98	212
1467.35	196
1472.71	180
1478.07	186
1483.42	168
1488.77	186
1494.11	186
1499.45	176
1504.78	166
1510.11	170
1515.43	152
1520.74	154
1526.05	168
1531.36	162
1536.66	164
1541.95	162
1547.24	160
1552.52	174
1557.8	170
1563.08	174
1568.35	176
1573.61	178
1578.87	264
1584.12	408
1589.37	256
1594.61	306
1599.85	620
1605.08	562
1610.31	272
1615.53	216
1620.75	182
1625.96	160
1631.17	150
1636.37	148
1641.57	146
1646.76	150
1651.95	156
1657.13	132
1662.31	116
1667.48	142
1672.65	134
1677.81	134
1682.97	132
1688.12	134
1693.27	116
1698.41	130
1702.26	116