File: Mixture_Classification/Jesse_Dataset_v2/Pure Raman/Polystyrene/785nm/ps-ppo-6jan25-1,0000-map3_Y00_X06.txt
204.377	850
211.048	854
217.712	910
224.369	902
231.019	726
237.661	522
244.297	370
250.924	314
257.546	268
264.16	246
270.766	242
277.365	232
283.958	186
290.543	166
297.121	184
303.693	148
310.256	162
316.813	162
323.362	168
329.905	162
336.441	160
342.969	160
349.491	150
356.006	140
362.513	146
369.014	146
375.508	146
381.994	176
388.473	174
394.947	190
401.412	208
407.871	224
414.323	186
420.768	164
427.206	150
433.637	142
440.062	140
446.479	130
452.89	118
459.293	96
465.691	108
472.081	96
478.463	94
484.84	88
491.21	96
497.573	100
503.929	108
510.279	106
516.621	104
522.957	98
529.287	124
535.609	148
541.925	144
548.234	140
554.536	132
560.832	134
567.12	128
573.403	136
579.679	126
585.948	108
592.211	98
598.466	120
604.715	124
610.958	144
617.194	302
623.424	476
629.647	130
635.864	110
642.074	82
648.276	82
654.473	68
660.664	82
666.847	70
673.025	78
679.195	82
685.36	68
691.517	76
697.669	86
703.814	98
709.953	92
716.085	90
722.21	136
728.33	130
734.443	136
740.549	188
746.65	180
752.743	200
758.831	228
764.912	214
770.986	204
777.055	198
783.117	234
789.173	306
795.222	350
801.265	280
807.302	204
813.333	162
819.357	122
825.376	108
831.387	118
837.392	146
843.392	160
849.386	140
855.372	126
861.353	128
867.328	120
873.296	128
879.258	124
885.214	112
891.164	100
897.108	118
903.046	138
908.977	134
914.903	118
920.822	94
926.735	100
932.643	96
938.543	98
944.439	100
950.328	102
956.21	104
962.088	112
967.958	128
973.824	134
979.682	186
985.534	266
991.382	780
997.222	1214
1003.06	2916
1008.89	450
1014.71	202
1020.53	218
1026.34	488
1032.14	908
1037.94	394
1043.73	204
1049.52	162
1055.3	152
1061.08	156
1066.85	174
1072.61	164
1078.37	148
1084.12	162
1089.87	158
1095.61	176
1101.34	180
1107.07	148
1112.8	120
1118.51	112
1124.22	102
1129.93	108
1135.63	112
1141.32	142
1147.01	168
1152.69	354
1158.37	338
1164.04	210
1169.71	216
1175.37	296
1181.02	514
1186.67	426
1192.31	476
1197.95	520
1203.58	450
1209.2	302
1214.82	236
1220.44	210
1226.05	188
1231.65	182
1237.25	176
1242.84	166
1248.42	170
1254	170
1259.58	180
1265.15	146
1270.71	160
1276.27	158
1281.82	178
1287.37	172
1292.91	184
1298.45	206
1303.98	204
1309.5	226
1315.02	236
1320.53	274
1326.04	282
1331.54	300
1337.04	290
1342.53	264
1348.02	258
1353.5	268
1358.98	268
1364.45	254
1369.91	272
1375.37	274
1380.82	270
1386.27	238
1391.71	236
1397.15	234
1402.58	240
1408.01	234
1413.43	220
1418.85	214
1424.26	216
1429.66	216
1435.06	232
1440.46	274
1445.85	326
1451.23	332
1456.61	270
1461.98	200
1467.35	188
1472.71	188
1478.07	184
1483.42	186
1488.77	178
1494.11	190
1499.45	178
1504.78	156
1510.11	152
1515.43	164
1520.74	160
1526.05	162
1531.36	166
1536.66	164
1541.95	174
1547.24	162
1552.52	164
1557.8	162
1563.08	166
1568.35	168
1573.61	186
1578.87	270
1584.12	402
1589.37	238
1594.61	310
1599.85	614
1605.08	552
1610.31	272
1615.53	194
1620.75	178
1625.96	158
1631.17	144
1636.37	158
1641.57	152
1646.76	148
1651.95	146
1657.13	134
1662.31	130
1667.48	126
1672.65	126
1677.81	128
1682.97	124
1688.12	130
1693.27	110
1698.41	116
1702.26	132