File: Mixture_Classification/Jesse_Dataset_v2/Pure Raman/Polystyrene/785nm/ps-ppo-6jan25-1,0000-map3_Y01_X05.txt
204.377	802
211.048	854
217.712	926
224.369	864
231.019	712
237.661	568
244.297	376
250.924	316
257.546	278
264.16	258
270.766	244
277.365	212
283.958	222
290.543	186
297.121	178
303.693	164
310.256	144
316.813	176
323.362	168
329.905	164
336.441	176
342.969	154
349.491	160
356.006	152
362.513	146
369.014	156
375.508	162
381.994	162
388.473	188
394.947	192
401.412	200
407.871	230
414.323	184
420.768	156
427.206	152
433.637	130
440.062	138
446.479	124
452.89	110
459.293	106
465.691	104
472.081	96
478.463	100
484.84	92
491.21	90
497.573	102
503.929	114
510.279	110
516.621	112
522.957	104
529.287	116
535.609	146
541.925	144
548.234	144
554.536	124
560.832	124
567.12	122
573.403	140
579.679	116
585.948	104
592.211	98
598.466	118
604.715	124
610.958	146
617.194	316
623.424	462
629.647	130
635.864	100
642.074	94
648.276	78
654.473	68
660.664	80
666.847	82
673.025	74
679.195	74
685.36	76
691.517	72
697.669	90
703.814	100
709.953	90
716.085	104
722.21	136
728.33	128
734.443	134
740.549	182
746.65	170
752.743	214
758.831	230
764.912	224
770.986	208
777.055	184
783.117	238
789.173	300
795.222	340
801.265	286
807.302	204
813.333	148
819.357	114
825.376	112
831.387	120
837.392	138
843.392	152
849.386	132
855.372	124
861.353	128
867.328	106
873.296	120
879.258	112
885.214	114
891.164	106
897.108	122
903.046	138
908.977	142
914.903	118
920.822	100
926.735	96
932.643	102
938.543	106
944.439	92
950.328	94
956.21	94
962.088	118
967.958	124
973.824	138
979.682	190
985.534	250
991.382	728
997.222	1190
1003.06	2918
1008.89	442
1014.71	194
1020.53	208
1026.34	494
1032.14	880
1037.94	394
1043.73	206
1049.52	164
1055.3	146
1061.08	150
1066.85	168
1072.61	168
1078.37	178
1084.12	168
1089.87	160
1095.61	180
1101.34	156
1107.07	146
1112.8	124
1118.51	112
1124.22	96
1129.93	104
1135.63	94
1141.32	124
1147.01	178
1152.69	344
1158.37	342
1164.04	208
1169.71	214
1175.37	290
1181.02	542
1186.67	438
1192.31	490
1197.95	486
1203.58	426
1209.2	314
1214.82	222
1220.44	186
1226.05	196
1231.65	184
1237.25	168
1242.84	166
1248.42	162
1254	174
1259.58	172
1265.15	170
1270.71	180
1276.27	178
1281.82	170
1287.37	172
1292.91	196
1298.45	200
1303.98	230
1309.5	212
1315.02	234
1320.53	270
1326.04	292
1331.54	282
1337.04	266
1342.53	258
1348.02	268
1353.5	254
1358.98	254
1364.45	272
1369.91	298
1375.37	276
1380.82	254
1386.27	244
1391.71	216
1397.15	232
1402.58	222
1408.01	230
1413.43	216
1418.85	226
1424.26	216
1429.66	214
1435.06	234
1440.46	280
1445.85	318
1451.23	334
1456.61	272
1461.98	206
1467.35	194
1472.71	180
1478.07	182
1483.42	162
1488.77	168
1494.11	190
1499.45	164
1504.78	168
1510.11	158
1515.43	172
1520.74	160
1526.05	170
1531.36	166
1536.66	162
1541.95	150
1547.24	148
1552.52	156
1557.8	158
1563.08	170
1568.35	176
1573.61	194
1578.87	264
1584.12	384
1589.37	246
1594.61	302
1599.85	604
1605.08	550
1610.31	284
1615.53	198
1620.75	168
1625.96	164
1631.17	152
1636.37	148
1641.57	150
1646.76	150
1651.95	144
1657.13	134
1662.31	138
1667.48	134
1672.65	126
1677.81	124
1682.97	120
1688.12	130
1693.27	128
1698.41	122
1702.26	128