File: Mixture_Classification/Jesse_Dataset_v2/Pure Raman/Polystyrene/785nm/ps-ppo-6jan25-1,0000-map3_Y03_X08.txt
204.377	830
211.048	896
217.712	914
224.369	864
231.019	702
237.661	548
244.297	368
250.924	292
257.546	276
264.16	254
270.766	260
277.365	220
283.958	212
290.543	192
297.121	170
303.693	168
310.256	152
316.813	166
323.362	172
329.905	166
336.441	170
342.969	164
349.491	146
356.006	148
362.513	152
369.014	148
375.508	152
381.994	162
388.473	196
394.947	194
401.412	206
407.871	222
414.323	182
420.768	160
427.206	146
433.637	134
440.062	134
446.479	122
452.89	114
459.293	114
465.691	98
472.081	106
478.463	96
484.84	94
491.21	102
497.573	96
503.929	104
510.279	112
516.621	102
522.957	100
529.287	122
535.609	138
541.925	148
548.234	142
554.536	134
560.832	130
567.12	126
573.403	140
579.679	116
585.948	108
592.211	112
598.466	110
604.715	144
610.958	152
617.194	314
623.424	464
629.647	146
635.864	106
642.074	84
648.276	80
654.473	74
660.664	80
666.847	68
673.025	80
679.195	78
685.36	76
691.517	82
697.669	88
703.814	90
709.953	92
716.085	86
722.21	138
728.33	138
734.443	136
740.549	192
746.65	186
752.743	210
758.831	236
764.912	220
770.986	198
777.055	212
783.117	252
789.173	310
795.222	346
801.265	292
807.302	200
813.333	164
819.357	130
825.376	126
831.387	114
837.392	148
843.392	152
849.386	130
855.372	126
861.353	118
867.328	134
873.296	126
879.258	112
885.214	112
891.164	120
897.108	122
903.046	154
908.977	146
914.903	126
920.822	98
926.735	94
932.643	86
938.543	98
944.439	110
950.328	114
956.21	106
962.088	126
967.958	124
973.824	134
979.682	186
985.534	280
991.382	802
997.222	1226
1003.06	2896
1008.89	450
1014.71	194
1020.53	212
1026.34	486
1032.14	926
1037.94	408
1043.73	212
1049.52	162
1055.3	152
1061.08	152
1066.85	170
1072.61	192
1078.37	160
1084.12	176
1089.87	174
1095.61	180
1101.34	164
1107.07	152
1112.8	136
1118.51	120
1124.22	122
1129.93	112
1135.63	108
1141.32	138
1147.01	174
1152.69	380
1158.37	356
1164.04	210
1169.71	220
1175.37	302
1181.02	530
1186.67	442
1192.31	476
1197.95	496
1203.58	448
1209.2	324
1214.82	240
1220.44	212
1226.05	198
1231.65	188
1237.25	184
1242.84	184
1248.42	172
1254	160
1259.58	172
1265.15	176
1270.71	178
1276.27	172
1281.82	182
1287.37	174
1292.91	192
1298.45	206
1303.98	228
1309.5	240
1315.02	244
1320.53	274
1326.04	282
1331.54	324
1337.04	292
1342.53	272
1348.02	256
1353.5	276
1358.98	266
1364.45	280
1369.91	288
1375.37	274
1380.82	264
1386.27	248
1391.71	234
1397.15	240
1402.58	228
1408.01	224
1413.43	216
1418.85	232
1424.26	208
1429.66	222
1435.06	264
1440.46	282
1445.85	340
1451.23	342
1456.61	264
1461.98	220
1467.35	196
1472.71	202
1478.07	182
1483.42	190
1488.77	184
1494.11	182
1499.45	186
1504.78	162
1510.11	168
1515.43	168
1520.74	174
1526.05	154
1531.36	164
1536.66	162
1541.95	168
1547.24	156
1552.52	168
1557.8	156
1563.08	176
1568.35	182
1573.61	200
1578.87	272
1584.12	392
1589.37	254
1594.61	332
1599.85	628
1605.08	566
1610.31	258
1615.53	204
1620.75	180
1625.96	162
1631.17	150
1636.37	158
1641.57	156
1646.76	140
1651.95	140
1657.13	138
1662.31	138
1667.48	130
1672.65	122
1677.81	132
1682.97	130
1688.12	128
1693.27	126
1698.41	118
1702.26	124