File: Mixture_Classification/Jesse_Dataset_v2/Pure Raman/Polystyrene/785nm/ps-ppo-6jan25-1,0000-map3_Y03_X06.txt
204.377	852
211.048	918
217.712	910
224.369	874
231.019	746
237.661	544
244.297	394
250.924	296
257.546	278
264.16	274
270.766	244
277.365	222
283.958	216
290.543	186
297.121	160
303.693	174
310.256	164
316.813	168
323.362	170
329.905	160
336.441	166
342.969	152
349.491	152
356.006	148
362.513	146
369.014	150
375.508	156
381.994	174
388.473	174
394.947	176
401.412	212
407.871	222
414.323	192
420.768	162
427.206	154
433.637	142
440.062	132
446.479	132
452.89	122
459.293	106
465.691	108
472.081	102
478.463	100
484.84	102
491.21	84
497.573	104
503.929	108
510.279	104
516.621	106
522.957	114
529.287	112
535.609	128
541.925	152
548.234	140
554.536	126
560.832	134
567.12	128
573.403	124
579.679	118
585.948	116
592.211	110
598.466	108
604.715	126
610.958	142
617.194	336
623.424	474
629.647	132
635.864	112
642.074	88
648.276	74
654.473	74
660.664	68
666.847	72
673.025	76
679.195	68
685.36	76
691.517	74
697.669	96
703.814	92
709.953	92
716.085	92
722.21	120
728.33	120
734.443	130
740.549	180
746.65	188
752.743	204
758.831	220
764.912	224
770.986	194
777.055	202
783.117	228
789.173	304
795.222	342
801.265	274
807.302	196
813.333	156
819.357	130
825.376	104
831.387	118
837.392	152
843.392	168
849.386	144
855.372	130
861.353	122
867.328	112
873.296	116
879.258	112
885.214	104
891.164	110
897.108	124
903.046	142
908.977	126
914.903	114
920.822	104
926.735	98
932.643	100
938.543	96
944.439	104
950.328	102
956.21	98
962.088	122
967.958	124
973.824	132
979.682	172
985.534	288
991.382	778
997.222	1224
1003.06	2872
1008.89	460
1014.71	194
1020.53	198
1026.34	488
1032.14	892
1037.94	386
1043.73	192
1049.52	154
1055.3	160
1061.08	150
1066.85	164
1072.61	174
1078.37	154
1084.12	160
1089.87	164
1095.61	174
1101.34	156
1107.07	146
1112.8	136
1118.51	112
1124.22	120
1129.93	102
1135.63	108
1141.32	122
1147.01	166
1152.69	342
1158.37	316
1164.04	224
1169.71	202
1175.37	300
1181.02	522
1186.67	424
1192.31	480
1197.95	494
1203.58	466
1209.2	316
1214.82	238
1220.44	196
1226.05	192
1231.65	176
1237.25	166
1242.84	174
1248.42	168
1254	166
1259.58	164
1265.15	178
1270.71	170
1276.27	180
1281.82	176
1287.37	174
1292.91	188
1298.45	218
1303.98	202
1309.5	238
1315.02	250
1320.53	276
1326.04	294
1331.54	308
1337.04	290
1342.53	270
1348.02	270
1353.5	270
1358.98	290
1364.45	260
1369.91	290
1375.37	272
1380.82	256
1386.27	248
1391.71	234
1397.15	240
1402.58	252
1408.01	226
1413.43	224
1418.85	224
1424.26	226
1429.66	220
1435.06	234
1440.46	276
1445.85	324
1451.23	336
1456.61	262
1461.98	204
1467.35	194
1472.71	192
1478.07	172
1483.42	176
1488.77	188
1494.11	186
1499.45	158
1504.78	172
1510.11	174
1515.43	166
1520.74	160
1526.05	164
1531.36	164
1536.66	152
1541.95	148
1547.24	146
1552.52	170
1557.8	172
1563.08	144
1568.35	162
1573.61	208
1578.87	280
1584.12	408
1589.37	252
1594.61	322
1599.85	618
1605.08	544
1610.31	298
1615.53	186
1620.75	170
1625.96	162
1631.17	146
1636.37	142
1641.57	146
1646.76	156
1651.95	132
1657.13	136
1662.31	144
1667.48	120
1672.65	118
1677.81	120
1682.97	120
1688.12	112
1693.27	130
1698.41	116
1702.26	114