File: Mixture_Classification/Jesse_Dataset_v2/Pure Raman/Polystyrene/785nm/ps-ppo-6jan25-1,0000-map3_Y07_X01.txt
204.377	842
211.048	908
217.712	912
224.369	858
231.019	712
237.661	548
244.297	392
250.924	304
257.546	290
264.16	256
270.766	254
277.365	234
283.958	216
290.543	198
297.121	172
303.693	170
310.256	168
316.813	188
323.362	174
329.905	186
336.441	166
342.969	156
349.491	150
356.006	158
362.513	150
369.014	160
375.508	134
381.994	178
388.473	194
394.947	202
401.412	210
407.871	236
414.323	206
420.768	176
427.206	152
433.637	156
440.062	146
446.479	136
452.89	112
459.293	122
465.691	122
472.081	106
478.463	102
484.84	106
491.21	110
497.573	104
503.929	110
510.279	118
516.621	126
522.957	124
529.287	132
535.609	142
541.925	144
548.234	156
554.536	148
560.832	142
567.12	138
573.403	154
579.679	132
585.948	124
592.211	110
598.466	120
604.715	134
610.958	156
617.194	342
623.424	468
629.647	144
635.864	118
642.074	90
648.276	92
654.473	86
660.664	90
666.847	90
673.025	82
679.195	66
685.36	90
691.517	84
697.669	88
703.814	110
709.953	108
716.085	102
722.21	134
728.33	122
734.443	134
740.549	180
746.65	198
752.743	224
758.831	228
764.912	222
770.986	200
777.055	210
783.117	246
789.173	316
795.222	362
801.265	294
807.302	198
813.333	174
819.357	136
825.376	122
831.387	124
837.392	152
843.392	162
849.386	144
855.372	130
861.353	136
867.328	136
873.296	132
879.258	116
885.214	122
891.164	116
897.108	124
903.046	146
908.977	156
914.903	128
920.822	112
926.735	100
932.643	108
938.543	106
944.439	104
950.328	106
956.21	110
962.088	124
967.958	128
973.824	124
979.682	180
985.534	268
991.382	762
997.222	1218
1003.06	2882
1008.89	436
1014.71	194
1020.53	204
1026.34	496
1032.14	866
1037.94	398
1043.73	202
1049.52	178
1055.3	150
1061.08	162
1066.85	184
1072.61	178
1078.37	174
1084.12	162
1089.87	174
1095.61	172
1101.34	168
1107.07	152
1112.8	134
1118.51	126
1124.22	106
1129.93	100
1135.63	112
1141.32	134
1147.01	180
1152.69	360
1158.37	354
1164.04	216
1169.71	216
1175.37	300
1181.02	518
1186.67	432
1192.31	488
1197.95	488
1203.58	416
1209.2	322
1214.82	242
1220.44	210
1226.05	190
1231.65	198
1237.25	176
1242.84	174
1248.42	182
1254	158
1259.58	168
1265.15	164
1270.71	178
1276.27	158
1281.82	182
1287.37	186
1292.91	214
1298.45	198
1303.98	216
1309.5	226
1315.02	252
1320.53	252
1326.04	296
1331.54	294
1337.04	280
1342.53	252
1348.02	268
1353.5	264
1358.98	274
1364.45	246
1369.91	290
1375.37	256
1380.82	246
1386.27	244
1391.71	224
1397.15	218
1402.58	242
1408.01	222
1413.43	230
1418.85	218
1424.26	210
1429.66	222
1435.06	250
1440.46	288
1445.85	328
1451.23	314
1456.61	268
1461.98	206
1467.35	190
1472.71	196
1478.07	182
1483.42	186
1488.77	174
1494.11	166
1499.45	184
1504.78	176
1510.11	160
1515.43	168
1520.74	172
1526.05	156
1531.36	144
1536.66	164
1541.95	142
1547.24	156
1552.52	158
1557.8	154
1563.08	166
1568.35	168
1573.61	194
1578.87	268
1584.12	384
1589.37	236
1594.61	330
1599.85	596
1605.08	554
1610.31	272
1615.53	206
1620.75	166
1625.96	162
1631.17	152
1636.37	144
1641.57	162
1646.76	148
1651.95	140
1657.13	128
1662.31	132
1667.48	142
1672.65	138
1677.81	126
1682.97	114
1688.12	138
1693.27	118
1698.41	120
1702.26	114