File: Mixture_Classification/Jesse_Dataset_v2/Pure Raman/Polystyrene/785nm/ps-ppo-6jan25-1,0000-map3_Y02_X03.txt
204.377	856
211.048	892
217.712	892
224.369	922
231.019	736
237.661	550
244.297	370
250.924	314
257.546	278
264.16	272
270.766	260
277.365	222
283.958	212
290.543	190
297.121	186
303.693	176
310.256	178
316.813	178
323.362	178
329.905	170
336.441	166
342.969	172
349.491	152
356.006	154
362.513	150
369.014	162
375.508	156
381.994	180
388.473	178
394.947	178
401.412	212
407.871	224
414.323	188
420.768	164
427.206	158
433.637	142
440.062	134
446.479	138
452.89	120
459.293	116
465.691	110
472.081	116
478.463	98
484.84	88
491.21	102
497.573	102
503.929	102
510.279	114
516.621	108
522.957	116
529.287	128
535.609	150
541.925	148
548.234	144
554.536	132
560.832	136
567.12	126
573.403	130
579.679	126
585.948	112
592.211	112
598.466	106
604.715	128
610.958	144
617.194	332
623.424	474
629.647	146
635.864	102
642.074	86
648.276	86
654.473	78
660.664	78
666.847	80
673.025	72
679.195	70
685.36	78
691.517	76
697.669	82
703.814	96
709.953	100
716.085	102
722.21	130
728.33	150
734.443	136
740.549	162
746.65	184
752.743	202
758.831	236
764.912	208
770.986	190
777.055	202
783.117	246
789.173	330
795.222	342
801.265	290
807.302	192
813.333	156
819.357	130
825.376	106
831.387	118
837.392	142
843.392	162
849.386	138
855.372	118
861.353	114
867.328	132
873.296	120
879.258	120
885.214	106
891.164	108
897.108	120
903.046	142
908.977	142
914.903	118
920.822	104
926.735	108
932.643	94
938.543	100
944.439	114
950.328	108
956.21	108
962.088	118
967.958	134
973.824	136
979.682	198
985.534	268
991.382	762
997.222	1238
1003.06	2874
1008.89	478
1014.71	210
1020.53	232
1026.34	496
1032.14	902
1037.94	398
1043.73	220
1049.52	164
1055.3	156
1061.08	164
1066.85	168
1072.61	162
1078.37	176
1084.12	172
1089.87	180
1095.61	166
1101.34	154
1107.07	126
1112.8	132
1118.51	124
1124.22	112
1129.93	108
1135.63	110
1141.32	126
1147.01	176
1152.69	362
1158.37	362
1164.04	218
1169.71	214
1175.37	306
1181.02	510
1186.67	426
1192.31	496
1197.95	492
1203.58	438
1209.2	324
1214.82	230
1220.44	214
1226.05	190
1231.65	178
1237.25	166
1242.84	178
1248.42	164
1254	172
1259.58	166
1265.15	170
1270.71	170
1276.27	166
1281.82	178
1287.37	172
1292.91	194
1298.45	208
1303.98	218
1309.5	228
1315.02	236
1320.53	258
1326.04	296
1331.54	294
1337.04	270
1342.53	256
1348.02	262
1353.5	264
1358.98	276
1364.45	256
1369.91	276
1375.37	276
1380.82	256
1386.27	248
1391.71	234
1397.15	214
1402.58	228
1408.01	242
1413.43	214
1418.85	226
1424.26	194
1429.66	220
1435.06	246
1440.46	266
1445.85	326
1451.23	328
1456.61	270
1461.98	198
1467.35	178
1472.71	180
1478.07	182
1483.42	178
1488.77	188
1494.11	182
1499.45	168
1504.78	162
1510.11	172
1515.43	166
1520.74	164
1526.05	168
1531.36	148
1536.66	168
1541.95	158
1547.24	162
1552.52	160
1557.8	148
1563.08	180
1568.35	172
1573.61	182
1578.87	266
1584.12	400
1589.37	260
1594.61	302
1599.85	612
1605.08	570
1610.31	290
1615.53	186
1620.75	178
1625.96	168
1631.17	148
1636.37	146
1641.57	154
1646.76	152
1651.95	132
1657.13	138
1662.31	134
1667.48	124
1672.65	128
1677.81	118
1682.97	136
1688.12	128
1693.27	120
1698.41	122
1702.26	122