File: Mixture_Classification/Jesse_Dataset_v2/Pure Raman/Polystyrene/785nm/ps-ppo-6jan25-1,0000-map3_Y03_X02.txt
204.377	834
211.048	846
217.712	916
224.369	868
231.019	702
237.661	548
244.297	370
250.924	304
257.546	272
264.16	266
270.766	248
277.365	224
283.958	218
290.543	194
297.121	166
303.693	152
310.256	170
316.813	160
323.362	168
329.905	158
336.441	168
342.969	144
349.491	154
356.006	154
362.513	132
369.014	136
375.508	158
381.994	156
388.473	174
394.947	188
401.412	214
407.871	240
414.323	182
420.768	158
427.206	150
433.637	130
440.062	134
446.479	126
452.89	112
459.293	104
465.691	104
472.081	108
478.463	98
484.84	90
491.21	100
497.573	96
503.929	110
510.279	92
516.621	106
522.957	106
529.287	130
535.609	140
541.925	138
548.234	140
554.536	126
560.832	126
567.12	130
573.403	126
579.679	120
585.948	118
592.211	108
598.466	114
604.715	134
610.958	150
617.194	298
623.424	480
629.647	148
635.864	108
642.074	94
648.276	82
654.473	74
660.664	82
666.847	76
673.025	70
679.195	80
685.36	66
691.517	82
697.669	78
703.814	96
709.953	94
716.085	92
722.21	118
728.33	128
734.443	136
740.549	184
746.65	194
752.743	210
758.831	224
764.912	206
770.986	202
777.055	194
783.117	228
789.173	312
795.222	322
801.265	282
807.302	202
813.333	162
819.357	118
825.376	118
831.387	114
837.392	148
843.392	156
849.386	132
855.372	116
861.353	126
867.328	126
873.296	118
879.258	122
885.214	114
891.164	106
897.108	126
903.046	140
908.977	142
914.903	106
920.822	104
926.735	94
932.643	106
938.543	112
944.439	96
950.328	94
956.21	102
962.088	120
967.958	118
973.824	132
979.682	176
985.534	270
991.382	738
997.222	1242
1003.06	2862
1008.89	442
1014.71	188
1020.53	214
1026.34	466
1032.14	896
1037.94	410
1043.73	216
1049.52	152
1055.3	148
1061.08	152
1066.85	160
1072.61	176
1078.37	164
1084.12	166
1089.87	154
1095.61	176
1101.34	168
1107.07	136
1112.8	128
1118.51	116
1124.22	112
1129.93	110
1135.63	116
1141.32	142
1147.01	168
1152.69	354
1158.37	340
1164.04	224
1169.71	220
1175.37	304
1181.02	518
1186.67	440
1192.31	476
1197.95	474
1203.58	432
1209.2	308
1214.82	230
1220.44	208
1226.05	200
1231.65	178
1237.25	174
1242.84	164
1248.42	170
1254	174
1259.58	162
1265.15	158
1270.71	174
1276.27	178
1281.82	170
1287.37	176
1292.91	202
1298.45	204
1303.98	218
1309.5	224
1315.02	248
1320.53	270
1326.04	266
1331.54	292
1337.04	294
1342.53	284
1348.02	242
1353.5	258
1358.98	246
1364.45	270
1369.91	266
1375.37	270
1380.82	256
1386.27	244
1391.71	236
1397.15	218
1402.58	230
1408.01	232
1413.43	226
1418.85	214
1424.26	204
1429.66	210
1435.06	232
1440.46	272
1445.85	320
1451.23	332
1456.61	266
1461.98	196
1467.35	174
1472.71	174
1478.07	164
1483.42	172
1488.77	176
1494.11	182
1499.45	162
1504.78	158
1510.11	160
1515.43	158
1520.74	154
1526.05	152
1531.36	168
1536.66	154
1541.95	152
1547.24	154
1552.52	146
1557.8	160
1563.08	164
1568.35	170
1573.61	196
1578.87	260
1584.12	398
1589.37	248
1594.61	300
1599.85	618
1605.08	544
1610.31	248
1615.53	188
1620.75	168
1625.96	158
1631.17	148
1636.37	154
1641.57	140
1646.76	152
1651.95	134
1657.13	130
1662.31	134
1667.48	120
1672.65	122
1677.81	130
1682.97	124
1688.12	124
1693.27	122
1698.41	112
1702.26	114