File: Mixture_Classification/Jesse_Dataset_v2/Pure Raman/Polystyrene/785nm/ps-ppo-6jan25-1,0000-map3_Y06_X00.txt
204.377	834
211.048	880
217.712	902
224.369	878
231.019	708
237.661	526
244.297	388
250.924	302
257.546	270
264.16	256
270.766	236
277.365	226
283.958	212
290.543	186
297.121	172
303.693	172
310.256	164
316.813	158
323.362	162
329.905	174
336.441	164
342.969	156
349.491	154
356.006	148
362.513	150
369.014	136
375.508	166
381.994	172
388.473	174
394.947	188
401.412	204
407.871	222
414.323	198
420.768	166
427.206	144
433.637	142
440.062	128
446.479	130
452.89	112
459.293	106
465.691	104
472.081	118
478.463	104
484.84	86
491.21	90
497.573	104
503.929	106
510.279	110
516.621	112
522.957	110
529.287	128
535.609	146
541.925	154
548.234	140
554.536	148
560.832	134
567.12	140
573.403	140
579.679	112
585.948	110
592.211	114
598.466	102
604.715	132
610.958	140
617.194	314
623.424	464
629.647	144
635.864	110
642.074	94
648.276	82
654.473	74
660.664	84
666.847	76
673.025	78
679.195	78
685.36	68
691.517	80
697.669	80
703.814	90
709.953	92
716.085	90
722.21	124
728.33	122
734.443	142
740.549	176
746.65	172
752.743	218
758.831	240
764.912	226
770.986	204
777.055	190
783.117	236
789.173	314
795.222	338
801.265	290
807.302	202
813.333	158
819.357	124
825.376	116
831.387	118
837.392	136
843.392	160
849.386	136
855.372	118
861.353	124
867.328	120
873.296	116
879.258	116
885.214	116
891.164	114
897.108	112
903.046	138
908.977	140
914.903	116
920.822	102
926.735	92
932.643	92
938.543	96
944.439	108
950.328	98
956.21	100
962.088	114
967.958	128
973.824	128
979.682	180
985.534	274
991.382	748
997.222	1172
1003.06	2878
1008.89	430
1014.71	186
1020.53	224
1026.34	502
1032.14	910
1037.94	418
1043.73	204
1049.52	158
1055.3	152
1061.08	160
1066.85	156
1072.61	180
1078.37	168
1084.12	180
1089.87	158
1095.61	156
1101.34	172
1107.07	138
1112.8	126
1118.51	116
1124.22	102
1129.93	98
1135.63	104
1141.32	126
1147.01	154
1152.69	332
1158.37	342
1164.04	224
1169.71	220
1175.37	296
1181.02	502
1186.67	438
1192.31	470
1197.95	490
1203.58	436
1209.2	312
1214.82	216
1220.44	206
1226.05	204
1231.65	172
1237.25	178
1242.84	178
1248.42	166
1254	158
1259.58	154
1265.15	164
1270.71	164
1276.27	164
1281.82	174
1287.37	182
1292.91	188
1298.45	196
1303.98	214
1309.5	220
1315.02	228
1320.53	268
1326.04	288
1331.54	296
1337.04	262
1342.53	250
1348.02	264
1353.5	256
1358.98	260
1364.45	274
1369.91	276
1375.37	242
1380.82	240
1386.27	236
1391.71	238
1397.15	210
1402.58	224
1408.01	222
1413.43	208
1418.85	206
1424.26	224
1429.66	224
1435.06	224
1440.46	268
1445.85	308
1451.23	334
1456.61	260
1461.98	206
1467.35	186
1472.71	182
1478.07	172
1483.42	174
1488.77	172
1494.11	200
1499.45	170
1504.78	164
1510.11	164
1515.43	154
1520.74	156
1526.05	166
1531.36	156
1536.66	160
1541.95	158
1547.24	154
1552.52	138
1557.8	152
1563.08	160
1568.35	158
1573.61	184
1578.87	282
1584.12	392
1589.37	252
1594.61	312
1599.85	600
1605.08	554
1610.31	266
1615.53	198
1620.75	174
1625.96	154
1631.17	144
1636.37	156
1641.57	134
1646.76	140
1651.95	148
1657.13	124
1662.31	114
1667.48	122
1672.65	124
1677.81	122
1682.97	122
1688.12	118
1693.27	124
1698.41	120
1702.26	122