File: Mixture_Classification/Jesse_Dataset_v2/Pure Raman/Polystyrene/785nm/ps-ppo-6jan25-1,0000-map3_Y07_X00.txt
204.377	856
211.048	878
217.712	896
224.369	868
231.019	728
237.661	550
244.297	394
250.924	306
257.546	282
264.16	266
270.766	250
277.365	234
283.958	198
290.543	192
297.121	178
303.693	176
310.256	172
316.813	176
323.362	180
329.905	170
336.441	164
342.969	172
349.491	148
356.006	154
362.513	144
369.014	152
375.508	164
381.994	178
388.473	186
394.947	178
401.412	224
407.871	238
414.323	198
420.768	186
427.206	158
433.637	144
440.062	138
446.479	124
452.89	114
459.293	110
465.691	108
472.081	102
478.463	104
484.84	108
491.21	96
497.573	106
503.929	118
510.279	96
516.621	112
522.957	110
529.287	134
535.609	134
541.925	154
548.234	142
554.536	140
560.832	128
567.12	132
573.403	142
579.679	118
585.948	114
592.211	108
598.466	110
604.715	136
610.958	150
617.194	320
623.424	446
629.647	156
635.864	110
642.074	82
648.276	94
654.473	80
660.664	76
666.847	78
673.025	76
679.195	78
685.36	72
691.517	76
697.669	90
703.814	104
709.953	98
716.085	102
722.21	134
728.33	132
734.443	124
740.549	172
746.65	178
752.743	210
758.831	218
764.912	218
770.986	208
777.055	190
783.117	248
789.173	304
795.222	354
801.265	274
807.302	190
813.333	146
819.357	122
825.376	110
831.387	116
837.392	152
843.392	154
849.386	138
855.372	120
861.353	128
867.328	122
873.296	114
879.258	112
885.214	114
891.164	114
897.108	122
903.046	148
908.977	146
914.903	110
920.822	108
926.735	104
932.643	100
938.543	92
944.439	98
950.328	102
956.21	108
962.088	118
967.958	120
973.824	142
979.682	188
985.534	276
991.382	736
997.222	1196
1003.06	2860
1008.89	442
1014.71	190
1020.53	234
1026.34	496
1032.14	882
1037.94	396
1043.73	206
1049.52	158
1055.3	150
1061.08	166
1066.85	170
1072.61	182
1078.37	168
1084.12	168
1089.87	162
1095.61	170
1101.34	160
1107.07	138
1112.8	140
1118.51	116
1124.22	116
1129.93	110
1135.63	110
1141.32	132
1147.01	164
1152.69	356
1158.37	348
1164.04	212
1169.71	218
1175.37	298
1181.02	520
1186.67	454
1192.31	480
1197.95	482
1203.58	440
1209.2	320
1214.82	222
1220.44	198
1226.05	210
1231.65	184
1237.25	164
1242.84	172
1248.42	170
1254	164
1259.58	172
1265.15	156
1270.71	146
1276.27	164
1281.82	170
1287.37	186
1292.91	188
1298.45	210
1303.98	210
1309.5	210
1315.02	240
1320.53	272
1326.04	270
1331.54	294
1337.04	284
1342.53	264
1348.02	252
1353.5	264
1358.98	264
1364.45	262
1369.91	256
1375.37	268
1380.82	242
1386.27	236
1391.71	228
1397.15	214
1402.58	232
1408.01	220
1413.43	210
1418.85	202
1424.26	212
1429.66	216
1435.06	248
1440.46	264
1445.85	316
1451.23	336
1456.61	262
1461.98	214
1467.35	186
1472.71	176
1478.07	176
1483.42	186
1488.77	166
1494.11	196
1499.45	158
1504.78	162
1510.11	168
1515.43	158
1520.74	162
1526.05	154
1531.36	166
1536.66	156
1541.95	158
1547.24	164
1552.52	160
1557.8	152
1563.08	160
1568.35	180
1573.61	190
1578.87	266
1584.12	384
1589.37	248
1594.61	306
1599.85	594
1605.08	558
1610.31	288
1615.53	192
1620.75	168
1625.96	148
1631.17	150
1636.37	158
1641.57	136
1646.76	144
1651.95	154
1657.13	132
1662.31	130
1667.48	134
1672.65	138
1677.81	126
1682.97	118
1688.12	124
1693.27	124
1698.41	118
1702.26	120