File: Mixture_Classification/Jesse_Dataset_v2/Pure Raman/Polystyrene/785nm/ps-ppo-6jan25-1,0000-map3_Y06_X04.txt
204.377	844
211.048	882
217.712	924
224.369	888
231.019	716
237.661	564
244.297	400
250.924	326
257.546	288
264.16	272
270.766	258
277.365	238
283.958	232
290.543	196
297.121	184
303.693	186
310.256	180
316.813	176
323.362	176
329.905	166
336.441	176
342.969	178
349.491	174
356.006	158
362.513	158
369.014	166
375.508	182
381.994	182
388.473	188
394.947	210
401.412	232
407.871	236
414.323	212
420.768	194
427.206	150
433.637	168
440.062	146
446.479	140
452.89	130
459.293	118
465.691	126
472.081	126
478.463	120
484.84	122
491.21	108
497.573	118
503.929	124
510.279	118
516.621	126
522.957	138
529.287	140
535.609	158
541.925	164
548.234	168
554.536	166
560.832	148
567.12	150
573.403	150
579.679	138
585.948	126
592.211	126
598.466	132
604.715	144
610.958	166
617.194	318
623.424	472
629.647	174
635.864	118
642.074	92
648.276	88
654.473	88
660.664	86
666.847	84
673.025	82
679.195	92
685.36	74
691.517	96
697.669	106
703.814	112
709.953	92
716.085	90
722.21	142
728.33	142
734.443	136
740.549	192
746.65	196
752.743	222
758.831	248
764.912	232
770.986	204
777.055	200
783.117	246
789.173	320
795.222	358
801.265	284
807.302	204
813.333	168
819.357	140
825.376	118
831.387	120
837.392	154
843.392	168
849.386	136
855.372	132
861.353	132
867.328	124
873.296	118
879.258	110
885.214	126
891.164	110
897.108	132
903.046	146
908.977	150
914.903	112
920.822	98
926.735	108
932.643	102
938.543	100
944.439	100
950.328	100
956.21	110
962.088	132
967.958	130
973.824	134
979.682	180
985.534	294
991.382	744
997.222	1200
1003.06	2870
1008.89	444
1014.71	200
1020.53	222
1026.34	502
1032.14	934
1037.94	410
1043.73	216
1049.52	156
1055.3	144
1061.08	150
1066.85	184
1072.61	188
1078.37	158
1084.12	162
1089.87	154
1095.61	184
1101.34	154
1107.07	144
1112.8	142
1118.51	110
1124.22	110
1129.93	112
1135.63	120
1141.32	130
1147.01	168
1152.69	346
1158.37	342
1164.04	214
1169.71	214
1175.37	300
1181.02	514
1186.67	442
1192.31	478
1197.95	502
1203.58	456
1209.2	324
1214.82	222
1220.44	202
1226.05	204
1231.65	176
1237.25	148
1242.84	170
1248.42	162
1254	160
1259.58	156
1265.15	164
1270.71	176
1276.27	164
1281.82	172
1287.37	176
1292.91	196
1298.45	192
1303.98	220
1309.5	224
1315.02	234
1320.53	270
1326.04	274
1331.54	296
1337.04	268
1342.53	266
1348.02	272
1353.5	276
1358.98	274
1364.45	272
1369.91	268
1375.37	278
1380.82	268
1386.27	246
1391.71	240
1397.15	236
1402.58	232
1408.01	228
1413.43	226
1418.85	208
1424.26	218
1429.66	226
1435.06	260
1440.46	268
1445.85	324
1451.23	326
1456.61	282
1461.98	208
1467.35	198
1472.71	190
1478.07	188
1483.42	186
1488.77	184
1494.11	184
1499.45	180
1504.78	174
1510.11	162
1515.43	164
1520.74	164
1526.05	170
1531.36	170
1536.66	166
1541.95	170
1547.24	160
1552.52	170
1557.8	168
1563.08	160
1568.35	168
1573.61	196
1578.87	270
1584.12	388
1589.37	258
1594.61	324
1599.85	596
1605.08	542
1610.31	278
1615.53	214
1620.75	162
1625.96	166
1631.17	154
1636.37	152
1641.57	162
1646.76	148
1651.95	140
1657.13	136
1662.31	128
1667.48	134
1672.65	134
1677.81	126
1682.97	126
1688.12	136
1693.27	116
1698.41	118
1702.26	122