File: Mixture_Classification/Jesse_Dataset_v2/Pure Raman/Polystyrene/785nm/ps-ppo-6jan25-1,0000-map3_Y07_X04.txt
204.377	852
211.048	872
217.712	924
224.369	878
231.019	740
237.661	566
244.297	390
250.924	322
257.546	284
264.16	270
270.766	262
277.365	258
283.958	226
290.543	208
297.121	176
303.693	184
310.256	180
316.813	196
323.362	164
329.905	190
336.441	192
342.969	178
349.491	170
356.006	172
362.513	166
369.014	170
375.508	158
381.994	176
388.473	212
394.947	214
401.412	232
407.871	264
414.323	222
420.768	190
427.206	166
433.637	168
440.062	162
446.479	156
452.89	136
459.293	132
465.691	128
472.081	138
478.463	124
484.84	120
491.21	128
497.573	122
503.929	144
510.279	134
516.621	124
522.957	138
529.287	148
535.609	168
541.925	178
548.234	146
554.536	152
560.832	160
567.12	168
573.403	170
579.679	144
585.948	124
592.211	132
598.466	134
604.715	154
610.958	160
617.194	348
623.424	484
629.647	176
635.864	132
642.074	118
648.276	106
654.473	102
660.664	84
666.847	84
673.025	96
679.195	92
685.36	98
691.517	98
697.669	104
703.814	116
709.953	114
716.085	114
722.21	132
728.33	144
734.443	154
740.549	188
746.65	206
752.743	218
758.831	240
764.912	240
770.986	222
777.055	202
783.117	254
789.173	324
795.222	346
801.265	294
807.302	208
813.333	182
819.357	130
825.376	120
831.387	128
837.392	160
843.392	160
849.386	154
855.372	136
861.353	140
867.328	130
873.296	130
879.258	126
885.214	118
891.164	120
897.108	132
903.046	144
908.977	148
914.903	118
920.822	116
926.735	98
932.643	104
938.543	106
944.439	102
950.328	108
956.21	112
962.088	128
967.958	138
973.824	138
979.682	190
985.534	280
991.382	780
997.222	1208
1003.06	2930
1008.89	440
1014.71	196
1020.53	238
1026.34	506
1032.14	902
1037.94	386
1043.73	214
1049.52	160
1055.3	142
1061.08	162
1066.85	174
1072.61	180
1078.37	188
1084.12	166
1089.87	170
1095.61	176
1101.34	162
1107.07	156
1112.8	134
1118.51	120
1124.22	106
1129.93	112
1135.63	124
1141.32	130
1147.01	180
1152.69	358
1158.37	362
1164.04	212
1169.71	216
1175.37	298
1181.02	530
1186.67	440
1192.31	500
1197.95	504
1203.58	454
1209.2	330
1214.82	240
1220.44	210
1226.05	198
1231.65	182
1237.25	178
1242.84	174
1248.42	172
1254	166
1259.58	168
1265.15	170
1270.71	176
1276.27	182
1281.82	180
1287.37	204
1292.91	200
1298.45	192
1303.98	208
1309.5	240
1315.02	254
1320.53	272
1326.04	310
1331.54	286
1337.04	284
1342.53	270
1348.02	274
1353.5	270
1358.98	260
1364.45	272
1369.91	272
1375.37	270
1380.82	266
1386.27	244
1391.71	240
1397.15	232
1402.58	224
1408.01	212
1413.43	220
1418.85	212
1424.26	218
1429.66	236
1435.06	242
1440.46	272
1445.85	326
1451.23	320
1456.61	278
1461.98	218
1467.35	198
1472.71	182
1478.07	186
1483.42	180
1488.77	182
1494.11	184
1499.45	178
1504.78	180
1510.11	164
1515.43	166
1520.74	162
1526.05	150
1531.36	166
1536.66	162
1541.95	170
1547.24	160
1552.52	176
1557.8	154
1563.08	174
1568.35	182
1573.61	202
1578.87	274
1584.12	410
1589.37	250
1594.61	310
1599.85	604
1605.08	558
1610.31	274
1615.53	206
1620.75	178
1625.96	162
1631.17	148
1636.37	150
1641.57	144
1646.76	162
1651.95	148
1657.13	138
1662.31	138
1667.48	128
1672.65	132
1677.81	134
1682.97	128
1688.12	122
1693.27	114
1698.41	120
1702.26	118