File: Mixture_Classification/Jesse_Dataset_v2/Pure Raman/Polystyrene/785nm/ps-ppo-6jan25-1,0000-map3_Y10_X10.txt
204.377	822
211.048	902
217.712	928
224.369	890
231.019	718
237.661	532
244.297	374
250.924	298
257.546	266
264.16	264
270.766	268
277.365	240
283.958	204
290.543	190
297.121	182
303.693	174
310.256	170
316.813	172
323.362	172
329.905	170
336.441	166
342.969	172
349.491	152
356.006	150
362.513	144
369.014	154
375.508	164
381.994	176
388.473	194
394.947	204
401.412	212
407.871	224
414.323	196
420.768	174
427.206	154
433.637	138
440.062	142
446.479	138
452.89	124
459.293	114
465.691	114
472.081	108
478.463	108
484.84	102
491.21	94
497.573	110
503.929	106
510.279	114
516.621	110
522.957	116
529.287	126
535.609	144
541.925	150
548.234	144
554.536	134
560.832	140
567.12	136
573.403	142
579.679	112
585.948	118
592.211	118
598.466	122
604.715	138
610.958	136
617.194	328
623.424	452
629.647	144
635.864	106
642.074	84
648.276	86
654.473	92
660.664	84
666.847	82
673.025	84
679.195	78
685.36	78
691.517	88
697.669	92
703.814	100
709.953	94
716.085	104
722.21	138
728.33	128
734.443	130
740.549	172
746.65	180
752.743	220
758.831	238
764.912	224
770.986	196
777.055	200
783.117	246
789.173	308
795.222	358
801.265	286
807.302	204
813.333	164
819.357	126
825.376	104
831.387	120
837.392	146
843.392	148
849.386	136
855.372	116
861.353	134
867.328	120
873.296	120
879.258	110
885.214	112
891.164	108
897.108	120
903.046	138
908.977	140
914.903	126
920.822	104
926.735	92
932.643	90
938.543	106
944.439	104
950.328	96
956.21	106
962.088	126
967.958	140
973.824	140
979.682	188
985.534	284
991.382	792
997.222	1278
1003.06	2802
1008.89	438
1014.71	212
1020.53	218
1026.34	520
1032.14	906
1037.94	398
1043.73	208
1049.52	166
1055.3	152
1061.08	156
1066.85	176
1072.61	172
1078.37	180
1084.12	174
1089.87	168
1095.61	176
1101.34	174
1107.07	138
1112.8	134
1118.51	114
1124.22	108
1129.93	114
1135.63	122
1141.32	134
1147.01	174
1152.69	360
1158.37	334
1164.04	216
1169.71	214
1175.37	308
1181.02	508
1186.67	448
1192.31	474
1197.95	498
1203.58	440
1209.2	326
1214.82	238
1220.44	212
1226.05	202
1231.65	194
1237.25	178
1242.84	162
1248.42	184
1254	180
1259.58	178
1265.15	168
1270.71	172
1276.27	190
1281.82	172
1287.37	190
1292.91	190
1298.45	216
1303.98	222
1309.5	260
1315.02	248
1320.53	266
1326.04	308
1331.54	306
1337.04	296
1342.53	288
1348.02	282
1353.5	288
1358.98	268
1364.45	306
1369.91	290
1375.37	304
1380.82	266
1386.27	258
1391.71	252
1397.15	244
1402.58	244
1408.01	224
1413.43	228
1418.85	234
1424.26	220
1429.66	242
1435.06	262
1440.46	298
1445.85	352
1451.23	344
1456.61	296
1461.98	212
1467.35	208
1472.71	202
1478.07	198
1483.42	194
1488.77	196
1494.11	200
1499.45	176
1504.78	188
1510.11	178
1515.43	174
1520.74	178
1526.05	192
1531.36	160
1536.66	176
1541.95	178
1547.24	180
1552.52	170
1557.8	176
1563.08	166
1568.35	190
1573.61	214
1578.87	278
1584.12	384
1589.37	268
1594.61	320
1599.85	628
1605.08	572
1610.31	286
1615.53	208
1620.75	184
1625.96	172
1631.17	164
1636.37	160
1641.57	164
1646.76	148
1651.95	150
1657.13	130
1662.31	134
1667.48	138
1672.65	130
1677.81	142
1682.97	134
1688.12	132
1693.27	126
1698.41	128
1702.26	126