File: Mixture_Classification/Jesse_Dataset_v2/Pure Raman/Polystyrene/785nm/ps-ppo-6jan25-1,0000-map3_Y07_X07.txt
204.377	806
211.048	884
217.712	912
224.369	868
231.019	682
237.661	532
244.297	388
250.924	308
257.546	266
264.16	266
270.766	250
277.365	234
283.958	222
290.543	190
297.121	176
303.693	162
310.256	160
316.813	160
323.362	168
329.905	172
336.441	168
342.969	158
349.491	166
356.006	146
362.513	158
369.014	142
375.508	168
381.994	170
388.473	172
394.947	198
401.412	216
407.871	250
414.323	196
420.768	176
427.206	162
433.637	156
440.062	134
446.479	130
452.89	118
459.293	110
465.691	116
472.081	110
478.463	98
484.84	100
491.21	92
497.573	102
503.929	110
510.279	106
516.621	108
522.957	110
529.287	128
535.609	144
541.925	150
548.234	136
554.536	140
560.832	142
567.12	130
573.403	132
579.679	122
585.948	104
592.211	114
598.466	112
604.715	128
610.958	146
617.194	318
623.424	468
629.647	164
635.864	104
642.074	98
648.276	78
654.473	84
660.664	74
666.847	80
673.025	72
679.195	76
685.36	76
691.517	70
697.669	90
703.814	104
709.953	90
716.085	96
722.21	134
728.33	124
734.443	132
740.549	178
746.65	180
752.743	204
758.831	230
764.912	212
770.986	206
777.055	190
783.117	244
789.173	314
795.222	344
801.265	278
807.302	192
813.333	168
819.357	130
825.376	112
831.387	120
837.392	146
843.392	154
849.386	132
855.372	120
861.353	120
867.328	128
873.296	122
879.258	118
885.214	114
891.164	114
897.108	120
903.046	146
908.977	136
914.903	118
920.822	98
926.735	100
932.643	96
938.543	90
944.439	102
950.328	102
956.21	94
962.088	120
967.958	134
973.824	140
979.682	184
985.534	270
991.382	802
997.222	1236
1003.06	2830
1008.89	444
1014.71	204
1020.53	224
1026.34	504
1032.14	892
1037.94	412
1043.73	204
1049.52	162
1055.3	156
1061.08	160
1066.85	178
1072.61	166
1078.37	158
1084.12	168
1089.87	170
1095.61	170
1101.34	162
1107.07	144
1112.8	132
1118.51	120
1124.22	114
1129.93	110
1135.63	112
1141.32	144
1147.01	170
1152.69	352
1158.37	356
1164.04	216
1169.71	222
1175.37	320
1181.02	534
1186.67	446
1192.31	476
1197.95	504
1203.58	456
1209.2	322
1214.82	216
1220.44	190
1226.05	196
1231.65	174
1237.25	166
1242.84	174
1248.42	162
1254	168
1259.58	166
1265.15	180
1270.71	160
1276.27	178
1281.82	182
1287.37	204
1292.91	200
1298.45	210
1303.98	206
1309.5	226
1315.02	242
1320.53	264
1326.04	304
1331.54	306
1337.04	282
1342.53	278
1348.02	264
1353.5	284
1358.98	268
1364.45	288
1369.91	286
1375.37	272
1380.82	276
1386.27	252
1391.71	262
1397.15	246
1402.58	254
1408.01	232
1413.43	234
1418.85	236
1424.26	226
1429.66	220
1435.06	260
1440.46	286
1445.85	308
1451.23	308
1456.61	272
1461.98	214
1467.35	206
1472.71	182
1478.07	186
1483.42	186
1488.77	174
1494.11	176
1499.45	172
1504.78	176
1510.11	164
1515.43	170
1520.74	170
1526.05	168
1531.36	162
1536.66	170
1541.95	164
1547.24	168
1552.52	164
1557.8	166
1563.08	172
1568.35	176
1573.61	192
1578.87	270
1584.12	400
1589.37	254
1594.61	312
1599.85	622
1605.08	560
1610.31	268
1615.53	206
1620.75	172
1625.96	158
1631.17	162
1636.37	158
1641.57	144
1646.76	156
1651.95	148
1657.13	144
1662.31	132
1667.48	122
1672.65	140
1677.81	126
1682.97	130
1688.12	118
1693.27	134
1698.41	122
1702.26	122