File: Mixture_Classification/Jesse_Dataset_v2/Pure Raman/Polystyrene/785nm/ps-ppo-6jan25-1,0000-map3_Y00_X07.txt
204.377	850
211.048	856
217.712	954
224.369	908
231.019	704
237.661	532
244.297	366
250.924	318
257.546	270
264.16	268
270.766	248
277.365	218
283.958	208
290.543	188
297.121	176
303.693	164
310.256	170
316.813	168
323.362	164
329.905	170
336.441	170
342.969	164
349.491	144
356.006	136
362.513	152
369.014	158
375.508	164
381.994	176
388.473	190
394.947	210
401.412	198
407.871	244
414.323	188
420.768	166
427.206	150
433.637	146
440.062	132
446.479	126
452.89	108
459.293	114
465.691	112
472.081	102
478.463	92
484.84	100
491.21	100
497.573	102
503.929	108
510.279	108
516.621	106
522.957	110
529.287	128
535.609	138
541.925	146
548.234	142
554.536	142
560.832	128
567.12	138
573.403	148
579.679	116
585.948	120
592.211	122
598.466	110
604.715	128
610.958	136
617.194	314
623.424	490
629.647	148
635.864	108
642.074	88
648.276	78
654.473	76
660.664	80
666.847	76
673.025	78
679.195	76
685.36	82
691.517	76
697.669	86
703.814	112
709.953	92
716.085	102
722.21	132
728.33	134
734.443	132
740.549	164
746.65	186
752.743	216
758.831	240
764.912	206
770.986	198
777.055	202
783.117	240
789.173	292
795.222	346
801.265	296
807.302	192
813.333	164
819.357	118
825.376	110
831.387	120
837.392	138
843.392	164
849.386	138
855.372	118
861.353	132
867.328	120
873.296	128
879.258	118
885.214	112
891.164	120
897.108	126
903.046	146
908.977	142
914.903	124
920.822	106
926.735	100
932.643	94
938.543	90
944.439	102
950.328	98
956.21	104
962.088	124
967.958	130
973.824	132
979.682	184
985.534	292
991.382	776
997.222	1210
1003.06	2864
1008.89	436
1014.71	192
1020.53	222
1026.34	486
1032.14	890
1037.94	430
1043.73	198
1049.52	156
1055.3	148
1061.08	146
1066.85	186
1072.61	180
1078.37	172
1084.12	172
1089.87	162
1095.61	162
1101.34	168
1107.07	160
1112.8	132
1118.51	120
1124.22	112
1129.93	108
1135.63	110
1141.32	120
1147.01	174
1152.69	362
1158.37	348
1164.04	212
1169.71	212
1175.37	302
1181.02	508
1186.67	424
1192.31	480
1197.95	516
1203.58	424
1209.2	320
1214.82	222
1220.44	208
1226.05	196
1231.65	186
1237.25	170
1242.84	178
1248.42	148
1254	166
1259.58	170
1265.15	170
1270.71	168
1276.27	172
1281.82	170
1287.37	174
1292.91	208
1298.45	190
1303.98	212
1309.5	242
1315.02	236
1320.53	274
1326.04	294
1331.54	290
1337.04	272
1342.53	272
1348.02	268
1353.5	254
1358.98	282
1364.45	254
1369.91	276
1375.37	264
1380.82	268
1386.27	234
1391.71	242
1397.15	248
1402.58	234
1408.01	232
1413.43	218
1418.85	234
1424.26	218
1429.66	220
1435.06	230
1440.46	280
1445.85	322
1451.23	344
1456.61	262
1461.98	224
1467.35	198
1472.71	196
1478.07	178
1483.42	178
1488.77	182
1494.11	192
1499.45	164
1504.78	178
1510.11	162
1515.43	164
1520.74	158
1526.05	166
1531.36	156
1536.66	166
1541.95	154
1547.24	158
1552.52	168
1557.8	160
1563.08	168
1568.35	170
1573.61	194
1578.87	298
1584.12	396
1589.37	250
1594.61	304
1599.85	606
1605.08	546
1610.31	278
1615.53	190
1620.75	174
1625.96	162
1631.17	144
1636.37	146
1641.57	156
1646.76	150
1651.95	144
1657.13	132
1662.31	134
1667.48	138
1672.65	122
1677.81	132
1682.97	124
1688.12	118
1693.27	132
1698.41	124
1702.26	124