File: Mixture_Classification/Jesse_Dataset_v2/Pure Raman/Polystyrene/785nm/ps-ppo-6jan25-1,0000-map3_Y04_X06.txt
204.377	836
211.048	860
217.712	900
224.369	920
231.019	708
237.661	554
244.297	390
250.924	302
257.546	280
264.16	274
270.766	264
277.365	234
283.958	216
290.543	188
297.121	186
303.693	166
310.256	170
316.813	166
323.362	170
329.905	158
336.441	164
342.969	158
349.491	162
356.006	164
362.513	146
369.014	146
375.508	162
381.994	164
388.473	182
394.947	178
401.412	212
407.871	220
414.323	194
420.768	174
427.206	148
433.637	140
440.062	140
446.479	128
452.89	128
459.293	114
465.691	104
472.081	110
478.463	104
484.84	92
491.21	98
497.573	94
503.929	104
510.279	114
516.621	108
522.957	118
529.287	130
535.609	154
541.925	144
548.234	144
554.536	134
560.832	132
567.12	138
573.403	140
579.679	112
585.948	112
592.211	110
598.466	114
604.715	130
610.958	148
617.194	318
623.424	462
629.647	150
635.864	100
642.074	98
648.276	90
654.473	80
660.664	82
666.847	64
673.025	82
679.195	78
685.36	86
691.517	68
697.669	88
703.814	102
709.953	106
716.085	100
722.21	134
728.33	134
734.443	134
740.549	182
746.65	176
752.743	196
758.831	224
764.912	230
770.986	204
777.055	200
783.117	248
789.173	318
795.222	350
801.265	274
807.302	198
813.333	168
819.357	128
825.376	104
831.387	118
837.392	146
843.392	148
849.386	132
855.372	128
861.353	124
867.328	122
873.296	126
879.258	124
885.214	114
891.164	108
897.108	120
903.046	136
908.977	140
914.903	122
920.822	96
926.735	90
932.643	84
938.543	96
944.439	98
950.328	108
956.21	104
962.088	120
967.958	132
973.824	128
979.682	186
985.534	274
991.382	784
997.222	1244
1003.06	2904
1008.89	434
1014.71	198
1020.53	238
1026.34	470
1032.14	924
1037.94	400
1043.73	212
1049.52	162
1055.3	158
1061.08	156
1066.85	164
1072.61	182
1078.37	194
1084.12	172
1089.87	176
1095.61	170
1101.34	176
1107.07	146
1112.8	134
1118.51	106
1124.22	102
1129.93	108
1135.63	122
1141.32	130
1147.01	162
1152.69	346
1158.37	330
1164.04	212
1169.71	220
1175.37	284
1181.02	538
1186.67	426
1192.31	482
1197.95	514
1203.58	458
1209.2	306
1214.82	244
1220.44	212
1226.05	200
1231.65	178
1237.25	164
1242.84	162
1248.42	170
1254	172
1259.58	166
1265.15	154
1270.71	170
1276.27	166
1281.82	166
1287.37	182
1292.91	182
1298.45	214
1303.98	206
1309.5	238
1315.02	242
1320.53	280
1326.04	286
1331.54	308
1337.04	294
1342.53	264
1348.02	256
1353.5	254
1358.98	258
1364.45	268
1369.91	290
1375.37	282
1380.82	256
1386.27	242
1391.71	236
1397.15	250
1402.58	240
1408.01	222
1413.43	226
1418.85	214
1424.26	216
1429.66	222
1435.06	248
1440.46	262
1445.85	320
1451.23	320
1456.61	290
1461.98	210
1467.35	186
1472.71	188
1478.07	190
1483.42	174
1488.77	178
1494.11	198
1499.45	168
1504.78	172
1510.11	174
1515.43	164
1520.74	166
1526.05	162
1531.36	160
1536.66	160
1541.95	162
1547.24	164
1552.52	158
1557.8	162
1563.08	168
1568.35	188
1573.61	188
1578.87	266
1584.12	386
1589.37	252
1594.61	298
1599.85	604
1605.08	524
1610.31	286
1615.53	196
1620.75	172
1625.96	158
1631.17	166
1636.37	154
1641.57	154
1646.76	152
1651.95	144
1657.13	128
1662.31	134
1667.48	130
1672.65	128
1677.81	124
1682.97	128
1688.12	130
1693.27	112
1698.41	118
1702.26	122