File: Mixture_Classification/Jesse_Dataset_v2/Pure Raman/Polystyrene/785nm/ps-ppo-6jan25-1,0000-map3_Y01_X07.txt
204.377	842
211.048	880
217.712	922
224.369	878
231.019	714
237.661	546
244.297	386
250.924	310
257.546	286
264.16	250
270.766	246
277.365	218
283.958	224
290.543	184
297.121	166
303.693	172
310.256	168
316.813	174
323.362	164
329.905	164
336.441	162
342.969	156
349.491	160
356.006	146
362.513	140
369.014	160
375.508	152
381.994	162
388.473	192
394.947	182
401.412	214
407.871	226
414.323	196
420.768	164
427.206	148
433.637	136
440.062	138
446.479	136
452.89	112
459.293	120
465.691	96
472.081	100
478.463	98
484.84	96
491.21	92
497.573	98
503.929	116
510.279	112
516.621	104
522.957	120
529.287	120
535.609	144
541.925	156
548.234	140
554.536	138
560.832	142
567.12	136
573.403	128
579.679	122
585.948	104
592.211	116
598.466	118
604.715	142
610.958	146
617.194	334
623.424	470
629.647	140
635.864	102
642.074	88
648.276	86
654.473	78
660.664	86
666.847	82
673.025	68
679.195	82
685.36	74
691.517	74
697.669	96
703.814	102
709.953	98
716.085	102
722.21	132
728.33	130
734.443	130
740.549	192
746.65	190
752.743	204
758.831	228
764.912	232
770.986	206
777.055	212
783.117	230
789.173	298
795.222	354
801.265	266
807.302	188
813.333	158
819.357	116
825.376	108
831.387	116
837.392	136
843.392	166
849.386	136
855.372	120
861.353	130
867.328	128
873.296	108
879.258	116
885.214	122
891.164	112
897.108	122
903.046	144
908.977	140
914.903	118
920.822	98
926.735	88
932.643	94
938.543	104
944.439	110
950.328	98
956.21	100
962.088	134
967.958	134
973.824	136
979.682	192
985.534	262
991.382	752
997.222	1218
1003.06	2860
1008.89	464
1014.71	196
1020.53	228
1026.34	492
1032.14	906
1037.94	414
1043.73	204
1049.52	162
1055.3	148
1061.08	156
1066.85	172
1072.61	166
1078.37	170
1084.12	170
1089.87	166
1095.61	176
1101.34	166
1107.07	144
1112.8	138
1118.51	122
1124.22	106
1129.93	112
1135.63	112
1141.32	134
1147.01	178
1152.69	350
1158.37	334
1164.04	210
1169.71	200
1175.37	280
1181.02	508
1186.67	438
1192.31	476
1197.95	490
1203.58	432
1209.2	310
1214.82	240
1220.44	204
1226.05	196
1231.65	166
1237.25	172
1242.84	180
1248.42	168
1254	174
1259.58	164
1265.15	174
1270.71	180
1276.27	170
1281.82	166
1287.37	182
1292.91	198
1298.45	196
1303.98	210
1309.5	226
1315.02	246
1320.53	264
1326.04	292
1331.54	300
1337.04	278
1342.53	264
1348.02	274
1353.5	276
1358.98	268
1364.45	278
1369.91	284
1375.37	298
1380.82	254
1386.27	264
1391.71	240
1397.15	224
1402.58	222
1408.01	234
1413.43	218
1418.85	222
1424.26	218
1429.66	226
1435.06	248
1440.46	280
1445.85	308
1451.23	336
1456.61	268
1461.98	208
1467.35	200
1472.71	202
1478.07	188
1483.42	182
1488.77	176
1494.11	188
1499.45	174
1504.78	172
1510.11	164
1515.43	166
1520.74	154
1526.05	166
1531.36	166
1536.66	164
1541.95	152
1547.24	160
1552.52	176
1557.8	168
1563.08	180
1568.35	180
1573.61	198
1578.87	272
1584.12	378
1589.37	260
1594.61	300
1599.85	586
1605.08	568
1610.31	280
1615.53	198
1620.75	170
1625.96	162
1631.17	144
1636.37	140
1641.57	148
1646.76	150
1651.95	142
1657.13	138
1662.31	132
1667.48	144
1672.65	130
1677.81	114
1682.97	130
1688.12	120
1693.27	124
1698.41	126
1702.26	120