File: Mixture_Classification/Jesse_Dataset_v2/Pure Raman/Polystyrene/785nm/ps-ppo-6jan25-1,0000-map3_Y06_X10.txt
204.377	820
211.048	898
217.712	910
224.369	852
231.019	714
237.661	516
244.297	402
250.924	320
257.546	256
264.16	274
270.766	258
277.365	246
283.958	214
290.543	200
297.121	186
303.693	170
310.256	176
316.813	168
323.362	172
329.905	162
336.441	180
342.969	168
349.491	162
356.006	160
362.513	170
369.014	174
375.508	164
381.994	184
388.473	178
394.947	204
401.412	220
407.871	226
414.323	206
420.768	184
427.206	162
433.637	152
440.062	132
446.479	126
452.89	134
459.293	120
465.691	106
472.081	116
478.463	114
484.84	108
491.21	104
497.573	114
503.929	126
510.279	110
516.621	108
522.957	116
529.287	118
535.609	150
541.925	150
548.234	152
554.536	138
560.832	134
567.12	136
573.403	136
579.679	120
585.948	108
592.211	118
598.466	116
604.715	134
610.958	144
617.194	342
623.424	484
629.647	142
635.864	108
642.074	100
648.276	82
654.473	84
660.664	78
666.847	82
673.025	82
679.195	78
685.36	74
691.517	80
697.669	96
703.814	106
709.953	96
716.085	96
722.21	142
728.33	140
734.443	136
740.549	176
746.65	190
752.743	218
758.831	240
764.912	226
770.986	204
777.055	212
783.117	240
789.173	314
795.222	350
801.265	278
807.302	192
813.333	164
819.357	134
825.376	112
831.387	124
837.392	140
843.392	162
849.386	136
855.372	124
861.353	120
867.328	122
873.296	126
879.258	120
885.214	112
891.164	112
897.108	124
903.046	148
908.977	146
914.903	116
920.822	100
926.735	102
932.643	96
938.543	106
944.439	106
950.328	106
956.21	102
962.088	122
967.958	124
973.824	136
979.682	198
985.534	276
991.382	800
997.222	1252
1003.06	2848
1008.89	446
1014.71	194
1020.53	224
1026.34	498
1032.14	886
1037.94	398
1043.73	202
1049.52	170
1055.3	150
1061.08	168
1066.85	184
1072.61	168
1078.37	176
1084.12	166
1089.87	172
1095.61	172
1101.34	170
1107.07	136
1112.8	134
1118.51	130
1124.22	108
1129.93	112
1135.63	124
1141.32	128
1147.01	170
1152.69	360
1158.37	344
1164.04	194
1169.71	218
1175.37	314
1181.02	506
1186.67	426
1192.31	472
1197.95	512
1203.58	462
1209.2	318
1214.82	232
1220.44	216
1226.05	196
1231.65	188
1237.25	192
1242.84	172
1248.42	174
1254	168
1259.58	180
1265.15	178
1270.71	172
1276.27	186
1281.82	188
1287.37	170
1292.91	202
1298.45	214
1303.98	226
1309.5	242
1315.02	254
1320.53	282
1326.04	292
1331.54	308
1337.04	310
1342.53	282
1348.02	268
1353.5	272
1358.98	274
1364.45	272
1369.91	294
1375.37	294
1380.82	282
1386.27	262
1391.71	244
1397.15	236
1402.58	232
1408.01	246
1413.43	242
1418.85	244
1424.26	236
1429.66	240
1435.06	252
1440.46	290
1445.85	342
1451.23	350
1456.61	286
1461.98	228
1467.35	220
1472.71	190
1478.07	194
1483.42	192
1488.77	174
1494.11	190
1499.45	190
1504.78	188
1510.11	170
1515.43	180
1520.74	172
1526.05	172
1531.36	172
1536.66	166
1541.95	166
1547.24	170
1552.52	168
1557.8	178
1563.08	172
1568.35	182
1573.61	190
1578.87	286
1584.12	398
1589.37	264
1594.61	334
1599.85	616
1605.08	562
1610.31	256
1615.53	200
1620.75	192
1625.96	180
1631.17	162
1636.37	156
1641.57	156
1646.76	154
1651.95	154
1657.13	142
1662.31	134
1667.48	138
1672.65	142
1677.81	126
1682.97	146
1688.12	116
1693.27	134
1698.41	128
1702.26	130