File: Mixture_Classification/Jesse_Dataset_v2/Pure Raman/Polystyrene/785nm/ps-ppo-6jan25-1,0000-map3_Y02_X10.txt
204.377	826
211.048	916
217.712	918
224.369	900
231.019	730
237.661	546
244.297	368
250.924	294
257.546	264
264.16	262
270.766	232
277.365	226
283.958	214
290.543	186
297.121	162
303.693	168
310.256	176
316.813	174
323.362	160
329.905	154
336.441	168
342.969	162
349.491	146
356.006	148
362.513	144
369.014	148
375.508	166
381.994	164
388.473	194
394.947	186
401.412	212
407.871	226
414.323	184
420.768	162
427.206	160
433.637	136
440.062	126
446.479	128
452.89	118
459.293	108
465.691	104
472.081	108
478.463	92
484.84	92
491.21	98
497.573	90
503.929	110
510.279	110
516.621	106
522.957	108
529.287	126
535.609	156
541.925	142
548.234	140
554.536	126
560.832	136
567.12	134
573.403	142
579.679	138
585.948	98
592.211	108
598.466	118
604.715	140
610.958	152
617.194	306
623.424	486
629.647	152
635.864	104
642.074	94
648.276	82
654.473	76
660.664	82
666.847	80
673.025	72
679.195	80
685.36	76
691.517	78
697.669	92
703.814	96
709.953	94
716.085	86
722.21	142
728.33	146
734.443	134
740.549	178
746.65	192
752.743	198
758.831	228
764.912	224
770.986	200
777.055	194
783.117	244
789.173	308
795.222	352
801.265	272
807.302	196
813.333	162
819.357	130
825.376	116
831.387	114
837.392	156
843.392	156
849.386	144
855.372	126
861.353	118
867.328	124
873.296	124
879.258	116
885.214	110
891.164	110
897.108	126
903.046	142
908.977	144
914.903	118
920.822	106
926.735	98
932.643	92
938.543	92
944.439	106
950.328	102
956.21	116
962.088	118
967.958	120
973.824	140
979.682	182
985.534	280
991.382	800
997.222	1202
1003.06	2874
1008.89	452
1014.71	180
1020.53	232
1026.34	496
1032.14	916
1037.94	406
1043.73	210
1049.52	170
1055.3	146
1061.08	154
1066.85	166
1072.61	184
1078.37	170
1084.12	162
1089.87	170
1095.61	170
1101.34	164
1107.07	138
1112.8	136
1118.51	116
1124.22	114
1129.93	102
1135.63	116
1141.32	130
1147.01	166
1152.69	358
1158.37	328
1164.04	216
1169.71	216
1175.37	312
1181.02	504
1186.67	438
1192.31	466
1197.95	504
1203.58	460
1209.2	316
1214.82	236
1220.44	206
1226.05	190
1231.65	188
1237.25	178
1242.84	174
1248.42	160
1254	172
1259.58	170
1265.15	176
1270.71	182
1276.27	178
1281.82	170
1287.37	198
1292.91	192
1298.45	214
1303.98	230
1309.5	224
1315.02	250
1320.53	270
1326.04	308
1331.54	310
1337.04	274
1342.53	290
1348.02	268
1353.5	266
1358.98	266
1364.45	294
1369.91	300
1375.37	284
1380.82	272
1386.27	260
1391.71	234
1397.15	248
1402.58	236
1408.01	226
1413.43	222
1418.85	236
1424.26	210
1429.66	226
1435.06	260
1440.46	282
1445.85	332
1451.23	334
1456.61	288
1461.98	220
1467.35	198
1472.71	200
1478.07	198
1483.42	184
1488.77	174
1494.11	194
1499.45	178
1504.78	184
1510.11	184
1515.43	172
1520.74	174
1526.05	160
1531.36	154
1536.66	170
1541.95	164
1547.24	156
1552.52	172
1557.8	168
1563.08	176
1568.35	186
1573.61	196
1578.87	268
1584.12	432
1589.37	248
1594.61	320
1599.85	618
1605.08	548
1610.31	278
1615.53	202
1620.75	168
1625.96	166
1631.17	148
1636.37	154
1641.57	146
1646.76	166
1651.95	150
1657.13	150
1662.31	144
1667.48	132
1672.65	132
1677.81	130
1682.97	130
1688.12	128
1693.27	124
1698.41	122
1702.26	122