File: Mixture_Classification/Jesse_Dataset_v2/Pure Raman/Polystyrene/785nm/ps-ppo-6jan25-1,0000-map3_Y01_X00.txt
204.377	836
211.048	886
217.712	872
224.369	886
231.019	712
237.661	562
244.297	382
250.924	316
257.546	284
264.16	282
270.766	262
277.365	232
283.958	218
290.543	186
297.121	184
303.693	160
310.256	174
316.813	182
323.362	174
329.905	162
336.441	166
342.969	160
349.491	152
356.006	148
362.513	158
369.014	152
375.508	156
381.994	176
388.473	188
394.947	188
401.412	230
407.871	224
414.323	190
420.768	170
427.206	160
433.637	142
440.062	142
446.479	132
452.89	130
459.293	114
465.691	100
472.081	114
478.463	104
484.84	90
491.21	112
497.573	112
503.929	116
510.279	110
516.621	116
522.957	114
529.287	136
535.609	136
541.925	148
548.234	142
554.536	142
560.832	136
567.12	148
573.403	150
579.679	130
585.948	108
592.211	106
598.466	120
604.715	142
610.958	144
617.194	328
623.424	448
629.647	150
635.864	110
642.074	100
648.276	78
654.473	88
660.664	80
666.847	78
673.025	76
679.195	76
685.36	84
691.517	86
697.669	90
703.814	100
709.953	102
716.085	98
722.21	140
728.33	138
734.443	132
740.549	174
746.65	188
752.743	202
758.831	238
764.912	228
770.986	202
777.055	182
783.117	252
789.173	288
795.222	340
801.265	278
807.302	206
813.333	164
819.357	126
825.376	118
831.387	114
837.392	152
843.392	174
849.386	144
855.372	130
861.353	126
867.328	118
873.296	126
879.258	116
885.214	108
891.164	120
897.108	116
903.046	132
908.977	146
914.903	122
920.822	92
926.735	96
932.643	104
938.543	100
944.439	102
950.328	106
956.21	112
962.088	118
967.958	130
973.824	134
979.682	180
985.534	266
991.382	750
997.222	1184
1003.06	2892
1008.89	454
1014.71	194
1020.53	218
1026.34	486
1032.14	894
1037.94	416
1043.73	180
1049.52	160
1055.3	156
1061.08	164
1066.85	168
1072.61	180
1078.37	166
1084.12	170
1089.87	170
1095.61	172
1101.34	168
1107.07	146
1112.8	122
1118.51	118
1124.22	100
1129.93	120
1135.63	106
1141.32	124
1147.01	160
1152.69	348
1158.37	312
1164.04	222
1169.71	222
1175.37	296
1181.02	512
1186.67	434
1192.31	448
1197.95	506
1203.58	438
1209.2	330
1214.82	238
1220.44	176
1226.05	190
1231.65	176
1237.25	162
1242.84	178
1248.42	168
1254	178
1259.58	162
1265.15	166
1270.71	168
1276.27	160
1281.82	166
1287.37	178
1292.91	200
1298.45	196
1303.98	220
1309.5	224
1315.02	236
1320.53	262
1326.04	274
1331.54	282
1337.04	282
1342.53	270
1348.02	264
1353.5	254
1358.98	266
1364.45	252
1369.91	274
1375.37	264
1380.82	248
1386.27	232
1391.71	214
1397.15	230
1402.58	224
1408.01	228
1413.43	200
1418.85	220
1424.26	206
1429.66	214
1435.06	232
1440.46	280
1445.85	324
1451.23	312
1456.61	250
1461.98	208
1467.35	182
1472.71	164
1478.07	178
1483.42	176
1488.77	166
1494.11	172
1499.45	162
1504.78	170
1510.11	164
1515.43	158
1520.74	164
1526.05	148
1531.36	166
1536.66	156
1541.95	148
1547.24	152
1552.52	152
1557.8	146
1563.08	152
1568.35	174
1573.61	198
1578.87	264
1584.12	392
1589.37	238
1594.61	300
1599.85	590
1605.08	566
1610.31	278
1615.53	202
1620.75	168
1625.96	158
1631.17	136
1636.37	146
1641.57	144
1646.76	142
1651.95	134
1657.13	126
1662.31	138
1667.48	122
1672.65	122
1677.81	124
1682.97	120
1688.12	116
1693.27	132
1698.41	114
1702.26	112