File: Mixture_Classification/Jesse_Dataset_v2/Pure Raman/Polystyrene/785nm/ps-ppo-6jan25-1,0000-map3_Y08_X00.txt
204.377	812
211.048	880
217.712	914
224.369	850
231.019	684
237.661	548
244.297	372
250.924	310
257.546	274
264.16	268
270.766	268
277.365	232
283.958	216
290.543	182
297.121	174
303.693	168
310.256	178
316.813	172
323.362	178
329.905	172
336.441	172
342.969	152
349.491	162
356.006	160
362.513	152
369.014	156
375.508	162
381.994	168
388.473	182
394.947	204
401.412	210
407.871	232
414.323	198
420.768	180
427.206	156
433.637	140
440.062	142
446.479	130
452.89	118
459.293	122
465.691	110
472.081	98
478.463	94
484.84	98
491.21	102
497.573	106
503.929	112
510.279	110
516.621	102
522.957	114
529.287	126
535.609	142
541.925	142
548.234	140
554.536	140
560.832	130
567.12	124
573.403	146
579.679	120
585.948	106
592.211	98
598.466	104
604.715	130
610.958	144
617.194	316
623.424	466
629.647	150
635.864	102
642.074	82
648.276	82
654.473	82
660.664	82
666.847	74
673.025	76
679.195	74
685.36	74
691.517	66
697.669	82
703.814	106
709.953	96
716.085	96
722.21	138
728.33	124
734.443	150
740.549	192
746.65	188
752.743	202
758.831	230
764.912	204
770.986	194
777.055	200
783.117	242
789.173	290
795.222	326
801.265	294
807.302	196
813.333	152
819.357	126
825.376	110
831.387	106
837.392	148
843.392	164
849.386	134
855.372	126
861.353	114
867.328	122
873.296	120
879.258	126
885.214	114
891.164	104
897.108	120
903.046	130
908.977	134
914.903	120
920.822	106
926.735	90
932.643	102
938.543	98
944.439	106
950.328	104
956.21	98
962.088	116
967.958	128
973.824	136
979.682	172
985.534	270
991.382	738
997.222	1240
1003.06	2776
1008.89	440
1014.71	176
1020.53	220
1026.34	502
1032.14	880
1037.94	404
1043.73	214
1049.52	168
1055.3	162
1061.08	164
1066.85	160
1072.61	176
1078.37	158
1084.12	162
1089.87	162
1095.61	174
1101.34	164
1107.07	142
1112.8	130
1118.51	122
1124.22	106
1129.93	108
1135.63	112
1141.32	126
1147.01	168
1152.69	358
1158.37	334
1164.04	208
1169.71	202
1175.37	300
1181.02	542
1186.67	424
1192.31	484
1197.95	510
1203.58	432
1209.2	332
1214.82	220
1220.44	210
1226.05	206
1231.65	170
1237.25	174
1242.84	162
1248.42	158
1254	166
1259.58	170
1265.15	176
1270.71	174
1276.27	166
1281.82	172
1287.37	186
1292.91	184
1298.45	204
1303.98	216
1309.5	210
1315.02	256
1320.53	270
1326.04	290
1331.54	292
1337.04	288
1342.53	246
1348.02	264
1353.5	248
1358.98	266
1364.45	274
1369.91	268
1375.37	266
1380.82	262
1386.27	242
1391.71	220
1397.15	238
1402.58	230
1408.01	214
1413.43	214
1418.85	216
1424.26	196
1429.66	218
1435.06	244
1440.46	288
1445.85	312
1451.23	318
1456.61	266
1461.98	214
1467.35	180
1472.71	182
1478.07	182
1483.42	172
1488.77	174
1494.11	192
1499.45	170
1504.78	174
1510.11	162
1515.43	162
1520.74	152
1526.05	160
1531.36	168
1536.66	154
1541.95	154
1547.24	144
1552.52	148
1557.8	168
1563.08	162
1568.35	176
1573.61	186
1578.87	270
1584.12	402
1589.37	266
1594.61	312
1599.85	622
1605.08	560
1610.31	260
1615.53	206
1620.75	164
1625.96	166
1631.17	150
1636.37	146
1641.57	140
1646.76	148
1651.95	156
1657.13	144
1662.31	128
1667.48	126
1672.65	136
1677.81	122
1682.97	118
1688.12	120
1693.27	114
1698.41	112
1702.26	118