File: Mixture_Classification/Jesse_Dataset_v2/Pure Raman/Polystyrene/785nm/ps-ppo-6jan25-1,0000-map3_Y06_X01.txt
204.377	824
211.048	872
217.712	906
224.369	878
231.019	728
237.661	560
244.297	384
250.924	298
257.546	280
264.16	258
270.766	240
277.365	226
283.958	212
290.543	182
297.121	170
303.693	162
310.256	174
316.813	176
323.362	166
329.905	162
336.441	166
342.969	160
349.491	142
356.006	142
362.513	140
369.014	148
375.508	168
381.994	158
388.473	180
394.947	190
401.412	230
407.871	224
414.323	202
420.768	164
427.206	146
433.637	144
440.062	136
446.479	132
452.89	106
459.293	106
465.691	98
472.081	100
478.463	104
484.84	96
491.21	92
497.573	106
503.929	104
510.279	96
516.621	114
522.957	110
529.287	126
535.609	140
541.925	156
548.234	138
554.536	130
560.832	128
567.12	122
573.403	134
579.679	110
585.948	116
592.211	106
598.466	110
604.715	128
610.958	144
617.194	322
623.424	444
629.647	146
635.864	112
642.074	88
648.276	84
654.473	74
660.664	72
666.847	74
673.025	70
679.195	74
685.36	78
691.517	84
697.669	88
703.814	100
709.953	92
716.085	102
722.21	140
728.33	130
734.443	132
740.549	170
746.65	190
752.743	196
758.831	228
764.912	230
770.986	198
777.055	192
783.117	252
789.173	306
795.222	322
801.265	286
807.302	188
813.333	166
819.357	132
825.376	118
831.387	118
837.392	144
843.392	160
849.386	132
855.372	128
861.353	126
867.328	132
873.296	130
879.258	112
885.214	116
891.164	100
897.108	118
903.046	146
908.977	136
914.903	118
920.822	102
926.735	104
932.643	94
938.543	100
944.439	102
950.328	96
956.21	100
962.088	126
967.958	124
973.824	122
979.682	190
985.534	274
991.382	732
997.222	1204
1003.06	2860
1008.89	434
1014.71	184
1020.53	218
1026.34	500
1032.14	862
1037.94	390
1043.73	208
1049.52	166
1055.3	150
1061.08	166
1066.85	168
1072.61	174
1078.37	170
1084.12	164
1089.87	166
1095.61	164
1101.34	180
1107.07	142
1112.8	128
1118.51	116
1124.22	104
1129.93	110
1135.63	114
1141.32	126
1147.01	160
1152.69	346
1158.37	336
1164.04	194
1169.71	224
1175.37	302
1181.02	508
1186.67	434
1192.31	472
1197.95	488
1203.58	446
1209.2	326
1214.82	236
1220.44	208
1226.05	198
1231.65	184
1237.25	160
1242.84	170
1248.42	164
1254	146
1259.58	156
1265.15	170
1270.71	166
1276.27	176
1281.82	172
1287.37	186
1292.91	196
1298.45	202
1303.98	208
1309.5	222
1315.02	238
1320.53	264
1326.04	290
1331.54	290
1337.04	286
1342.53	266
1348.02	270
1353.5	262
1358.98	254
1364.45	268
1369.91	266
1375.37	274
1380.82	242
1386.27	240
1391.71	242
1397.15	234
1402.58	224
1408.01	222
1413.43	216
1418.85	226
1424.26	218
1429.66	220
1435.06	224
1440.46	282
1445.85	318
1451.23	320
1456.61	272
1461.98	218
1467.35	184
1472.71	184
1478.07	172
1483.42	160
1488.77	188
1494.11	184
1499.45	184
1504.78	146
1510.11	160
1515.43	156
1520.74	160
1526.05	148
1531.36	140
1536.66	162
1541.95	166
1547.24	158
1552.52	150
1557.8	162
1563.08	166
1568.35	164
1573.61	194
1578.87	256
1584.12	386
1589.37	240
1594.61	306
1599.85	636
1605.08	560
1610.31	266
1615.53	190
1620.75	160
1625.96	154
1631.17	146
1636.37	142
1641.57	146
1646.76	144
1651.95	146
1657.13	136
1662.31	126
1667.48	122
1672.65	126
1677.81	132
1682.97	124
1688.12	120
1693.27	132
1698.41	118
1702.26	110