File: Mixture_Classification/Jesse_Dataset_v2/Pure Raman/Polystyrene/785nm/ps-ppo-6jan25-1,0000-map3_Y06_X05.txt
204.377	838
211.048	906
217.712	918
224.369	872
231.019	738
237.661	562
244.297	380
250.924	310
257.546	286
264.16	264
270.766	250
277.365	236
283.958	208
290.543	184
297.121	182
303.693	178
310.256	178
316.813	158
323.362	186
329.905	170
336.441	166
342.969	174
349.491	154
356.006	152
362.513	158
369.014	162
375.508	170
381.994	174
388.473	182
394.947	202
401.412	228
407.871	238
414.323	198
420.768	170
427.206	166
433.637	164
440.062	148
446.479	134
452.89	124
459.293	116
465.691	114
472.081	122
478.463	110
484.84	112
491.21	110
497.573	108
503.929	124
510.279	118
516.621	122
522.957	120
529.287	112
535.609	156
541.925	162
548.234	158
554.536	166
560.832	136
567.12	146
573.403	152
579.679	138
585.948	124
592.211	114
598.466	124
604.715	136
610.958	152
617.194	326
623.424	474
629.647	156
635.864	114
642.074	92
648.276	94
654.473	88
660.664	80
666.847	82
673.025	76
679.195	72
685.36	86
691.517	86
697.669	98
703.814	102
709.953	104
716.085	96
722.21	146
728.33	134
734.443	148
740.549	178
746.65	198
752.743	200
758.831	244
764.912	222
770.986	200
777.055	214
783.117	246
789.173	320
795.222	356
801.265	296
807.302	198
813.333	158
819.357	134
825.376	120
831.387	120
837.392	156
843.392	158
849.386	136
855.372	122
861.353	132
867.328	126
873.296	120
879.258	120
885.214	118
891.164	118
897.108	128
903.046	138
908.977	138
914.903	120
920.822	102
926.735	92
932.643	104
938.543	96
944.439	104
950.328	98
956.21	98
962.088	122
967.958	124
973.824	132
979.682	184
985.534	282
991.382	788
997.222	1228
1003.06	2862
1008.89	440
1014.71	204
1020.53	218
1026.34	494
1032.14	892
1037.94	398
1043.73	212
1049.52	166
1055.3	164
1061.08	160
1066.85	174
1072.61	186
1078.37	170
1084.12	172
1089.87	162
1095.61	178
1101.34	174
1107.07	140
1112.8	132
1118.51	118
1124.22	108
1129.93	112
1135.63	110
1141.32	136
1147.01	176
1152.69	360
1158.37	348
1164.04	206
1169.71	212
1175.37	298
1181.02	526
1186.67	438
1192.31	484
1197.95	514
1203.58	432
1209.2	294
1214.82	228
1220.44	206
1226.05	186
1231.65	180
1237.25	174
1242.84	168
1248.42	174
1254	172
1259.58	160
1265.15	178
1270.71	168
1276.27	176
1281.82	172
1287.37	170
1292.91	182
1298.45	212
1303.98	224
1309.5	228
1315.02	242
1320.53	282
1326.04	288
1331.54	306
1337.04	278
1342.53	264
1348.02	280
1353.5	272
1358.98	270
1364.45	276
1369.91	284
1375.37	296
1380.82	258
1386.27	246
1391.71	254
1397.15	232
1402.58	228
1408.01	236
1413.43	220
1418.85	204
1424.26	204
1429.66	218
1435.06	244
1440.46	270
1445.85	322
1451.23	336
1456.61	274
1461.98	216
1467.35	202
1472.71	186
1478.07	184
1483.42	178
1488.77	198
1494.11	200
1499.45	186
1504.78	176
1510.11	174
1515.43	162
1520.74	164
1526.05	168
1531.36	172
1536.66	152
1541.95	166
1547.24	160
1552.52	158
1557.8	152
1563.08	158
1568.35	172
1573.61	200
1578.87	270
1584.12	408
1589.37	248
1594.61	320
1599.85	642
1605.08	554
1610.31	264
1615.53	212
1620.75	176
1625.96	162
1631.17	164
1636.37	148
1641.57	166
1646.76	160
1651.95	150
1657.13	138
1662.31	134
1667.48	130
1672.65	132
1677.81	132
1682.97	126
1688.12	132
1693.27	122
1698.41	126
1702.26	126