File: Mixture_Classification/Jesse_Dataset_v2/Pure Raman/Polystyrene/785nm/ps-ppo-6jan25-1,0000-map3_Y08_X01.txt
204.377	832
211.048	878
217.712	918
224.369	886
231.019	708
237.661	528
244.297	382
250.924	302
257.546	272
264.16	262
270.766	254
277.365	236
283.958	208
290.543	192
297.121	168
303.693	160
310.256	162
316.813	174
323.362	166
329.905	168
336.441	162
342.969	154
349.491	156
356.006	142
362.513	148
369.014	154
375.508	160
381.994	170
388.473	176
394.947	190
401.412	224
407.871	224
414.323	192
420.768	164
427.206	144
433.637	144
440.062	138
446.479	136
452.89	118
459.293	106
465.691	102
472.081	106
478.463	100
484.84	98
491.21	92
497.573	90
503.929	112
510.279	102
516.621	112
522.957	118
529.287	120
535.609	142
541.925	154
548.234	138
554.536	134
560.832	132
567.12	128
573.403	136
579.679	118
585.948	98
592.211	108
598.466	106
604.715	126
610.958	138
617.194	316
623.424	454
629.647	136
635.864	104
642.074	84
648.276	84
654.473	74
660.664	72
666.847	78
673.025	74
679.195	72
685.36	72
691.517	66
697.669	90
703.814	98
709.953	100
716.085	98
722.21	128
728.33	126
734.443	124
740.549	160
746.65	182
752.743	198
758.831	240
764.912	202
770.986	204
777.055	208
783.117	224
789.173	302
795.222	350
801.265	272
807.302	194
813.333	172
819.357	122
825.376	100
831.387	108
837.392	138
843.392	154
849.386	134
855.372	116
861.353	122
867.328	118
873.296	118
879.258	108
885.214	108
891.164	106
897.108	104
903.046	136
908.977	142
914.903	104
920.822	102
926.735	100
932.643	98
938.543	90
944.439	98
950.328	104
956.21	106
962.088	120
967.958	130
973.824	138
979.682	180
985.534	268
991.382	740
997.222	1274
1003.06	2862
1008.89	450
1014.71	184
1020.53	234
1026.34	496
1032.14	884
1037.94	404
1043.73	200
1049.52	164
1055.3	146
1061.08	150
1066.85	170
1072.61	172
1078.37	166
1084.12	170
1089.87	166
1095.61	182
1101.34	168
1107.07	134
1112.8	134
1118.51	114
1124.22	116
1129.93	104
1135.63	120
1141.32	126
1147.01	172
1152.69	336
1158.37	340
1164.04	206
1169.71	208
1175.37	306
1181.02	522
1186.67	472
1192.31	478
1197.95	496
1203.58	426
1209.2	318
1214.82	236
1220.44	194
1226.05	202
1231.65	184
1237.25	170
1242.84	162
1248.42	166
1254	154
1259.58	164
1265.15	164
1270.71	152
1276.27	162
1281.82	168
1287.37	176
1292.91	192
1298.45	210
1303.98	210
1309.5	226
1315.02	250
1320.53	272
1326.04	276
1331.54	284
1337.04	282
1342.53	258
1348.02	234
1353.5	264
1358.98	266
1364.45	274
1369.91	270
1375.37	270
1380.82	258
1386.27	242
1391.71	226
1397.15	226
1402.58	236
1408.01	222
1413.43	222
1418.85	222
1424.26	218
1429.66	206
1435.06	230
1440.46	284
1445.85	320
1451.23	322
1456.61	280
1461.98	194
1467.35	176
1472.71	168
1478.07	174
1483.42	168
1488.77	170
1494.11	180
1499.45	188
1504.78	166
1510.11	162
1515.43	162
1520.74	156
1526.05	152
1531.36	170
1536.66	156
1541.95	166
1547.24	158
1552.52	168
1557.8	152
1563.08	162
1568.35	158
1573.61	188
1578.87	262
1584.12	406
1589.37	260
1594.61	294
1599.85	620
1605.08	570
1610.31	276
1615.53	212
1620.75	182
1625.96	150
1631.17	158
1636.37	142
1641.57	150
1646.76	156
1651.95	132
1657.13	136
1662.31	122
1667.48	126
1672.65	134
1677.81	120
1682.97	124
1688.12	130
1693.27	122
1698.41	122
1702.26	110