File: Mixture_Classification/Jesse_Dataset_v2/Pure Raman/Polystyrene/785nm/ps-ppo-6jan25-1,0000-map3_Y10_X05.txt
204.377	816
211.048	894
217.712	928
224.369	882
231.019	742
237.661	568
244.297	390
250.924	310
257.546	264
264.16	270
270.766	254
277.365	246
283.958	216
290.543	186
297.121	170
303.693	164
310.256	178
316.813	182
323.362	174
329.905	166
336.441	172
342.969	164
349.491	152
356.006	150
362.513	164
369.014	152
375.508	168
381.994	170
388.473	182
394.947	198
401.412	230
407.871	246
414.323	174
420.768	172
427.206	164
433.637	144
440.062	142
446.479	132
452.89	120
459.293	112
465.691	102
472.081	114
478.463	114
484.84	98
491.21	100
497.573	104
503.929	120
510.279	112
516.621	108
522.957	112
529.287	124
535.609	154
541.925	158
548.234	146
554.536	142
560.832	122
567.12	138
573.403	150
579.679	130
585.948	114
592.211	108
598.466	110
604.715	134
610.958	150
617.194	344
623.424	460
629.647	150
635.864	110
642.074	92
648.276	88
654.473	84
660.664	74
666.847	70
673.025	70
679.195	82
685.36	78
691.517	82
697.669	98
703.814	102
709.953	104
716.085	96
722.21	142
728.33	128
734.443	150
740.549	186
746.65	184
752.743	220
758.831	230
764.912	210
770.986	204
777.055	188
783.117	244
789.173	314
795.222	344
801.265	284
807.302	196
813.333	164
819.357	132
825.376	114
831.387	116
837.392	146
843.392	166
849.386	146
855.372	126
861.353	120
867.328	134
873.296	130
879.258	114
885.214	114
891.164	118
897.108	122
903.046	132
908.977	140
914.903	122
920.822	96
926.735	106
932.643	102
938.543	106
944.439	100
950.328	112
956.21	102
962.088	120
967.958	130
973.824	136
979.682	198
985.534	292
991.382	802
997.222	1242
1003.06	2840
1008.89	436
1014.71	208
1020.53	234
1026.34	486
1032.14	916
1037.94	410
1043.73	210
1049.52	160
1055.3	160
1061.08	170
1066.85	182
1072.61	178
1078.37	168
1084.12	162
1089.87	172
1095.61	160
1101.34	162
1107.07	146
1112.8	130
1118.51	130
1124.22	112
1129.93	112
1135.63	108
1141.32	132
1147.01	178
1152.69	362
1158.37	326
1164.04	208
1169.71	214
1175.37	318
1181.02	524
1186.67	434
1192.31	472
1197.95	512
1203.58	430
1209.2	318
1214.82	228
1220.44	206
1226.05	192
1231.65	186
1237.25	172
1242.84	172
1248.42	172
1254	180
1259.58	170
1265.15	168
1270.71	180
1276.27	168
1281.82	176
1287.37	190
1292.91	194
1298.45	218
1303.98	230
1309.5	224
1315.02	250
1320.53	274
1326.04	306
1331.54	292
1337.04	304
1342.53	276
1348.02	272
1353.5	268
1358.98	274
1364.45	286
1369.91	286
1375.37	282
1380.82	262
1386.27	244
1391.71	242
1397.15	238
1402.58	212
1408.01	230
1413.43	228
1418.85	216
1424.26	230
1429.66	218
1435.06	238
1440.46	286
1445.85	330
1451.23	312
1456.61	262
1461.98	208
1467.35	188
1472.71	202
1478.07	184
1483.42	188
1488.77	186
1494.11	180
1499.45	168
1504.78	160
1510.11	170
1515.43	178
1520.74	172
1526.05	164
1531.36	166
1536.66	172
1541.95	164
1547.24	160
1552.52	174
1557.8	168
1563.08	160
1568.35	188
1573.61	202
1578.87	264
1584.12	410
1589.37	244
1594.61	318
1599.85	626
1605.08	580
1610.31	276
1615.53	188
1620.75	178
1625.96	170
1631.17	158
1636.37	164
1641.57	156
1646.76	160
1651.95	152
1657.13	150
1662.31	126
1667.48	136
1672.65	136
1677.81	120
1682.97	136
1688.12	128
1693.27	124
1698.41	120
1702.26	130