File: Mixture_Classification/Jesse_Dataset_v2/Pure Raman/Polystyrene/785nm/ps-ppo-6jan25-1,0000-map3_Y01_X06.txt
204.377	826
211.048	896
217.712	910
224.369	852
231.019	702
237.661	522
244.297	392
250.924	318
257.546	258
264.16	242
270.766	232
277.365	232
283.958	224
290.543	186
297.121	168
303.693	170
310.256	152
316.813	164
323.362	164
329.905	160
336.441	176
342.969	150
349.491	138
356.006	132
362.513	150
369.014	142
375.508	160
381.994	182
388.473	184
394.947	190
401.412	208
407.871	228
414.323	190
420.768	164
427.206	150
433.637	144
440.062	130
446.479	124
452.89	112
459.293	106
465.691	102
472.081	110
478.463	94
484.84	92
491.21	92
497.573	98
503.929	104
510.279	108
516.621	108
522.957	116
529.287	116
535.609	138
541.925	130
548.234	140
554.536	136
560.832	130
567.12	138
573.403	134
579.679	118
585.948	112
592.211	100
598.466	102
604.715	126
610.958	150
617.194	306
623.424	456
629.647	146
635.864	100
642.074	82
648.276	78
654.473	76
660.664	74
666.847	68
673.025	56
679.195	80
685.36	76
691.517	74
697.669	88
703.814	92
709.953	88
716.085	96
722.21	124
728.33	138
734.443	128
740.549	156
746.65	188
752.743	214
758.831	234
764.912	214
770.986	188
777.055	186
783.117	260
789.173	298
795.222	342
801.265	276
807.302	186
813.333	160
819.357	122
825.376	110
831.387	126
837.392	138
843.392	152
849.386	134
855.372	124
861.353	116
867.328	122
873.296	116
879.258	120
885.214	112
891.164	108
897.108	116
903.046	130
908.977	132
914.903	108
920.822	102
926.735	102
932.643	100
938.543	104
944.439	92
950.328	106
956.21	102
962.088	112
967.958	134
973.824	132
979.682	190
985.534	266
991.382	772
997.222	1198
1003.06	2938
1008.89	426
1014.71	184
1020.53	220
1026.34	476
1032.14	924
1037.94	402
1043.73	204
1049.52	160
1055.3	158
1061.08	144
1066.85	170
1072.61	176
1078.37	156
1084.12	164
1089.87	156
1095.61	152
1101.34	160
1107.07	132
1112.8	116
1118.51	126
1124.22	104
1129.93	112
1135.63	114
1141.32	140
1147.01	174
1152.69	354
1158.37	344
1164.04	220
1169.71	210
1175.37	296
1181.02	512
1186.67	410
1192.31	464
1197.95	496
1203.58	434
1209.2	306
1214.82	242
1220.44	208
1226.05	192
1231.65	178
1237.25	170
1242.84	168
1248.42	162
1254	168
1259.58	168
1265.15	164
1270.71	172
1276.27	170
1281.82	176
1287.37	172
1292.91	182
1298.45	196
1303.98	220
1309.5	218
1315.02	246
1320.53	256
1326.04	276
1331.54	308
1337.04	260
1342.53	262
1348.02	264
1353.5	260
1358.98	268
1364.45	282
1369.91	274
1375.37	278
1380.82	238
1386.27	238
1391.71	242
1397.15	230
1402.58	232
1408.01	238
1413.43	218
1418.85	204
1424.26	204
1429.66	218
1435.06	256
1440.46	282
1445.85	316
1451.23	322
1456.61	270
1461.98	228
1467.35	192
1472.71	190
1478.07	180
1483.42	186
1488.77	174
1494.11	182
1499.45	174
1504.78	158
1510.11	174
1515.43	164
1520.74	164
1526.05	170
1531.36	162
1536.66	154
1541.95	150
1547.24	160
1552.52	160
1557.8	162
1563.08	172
1568.35	176
1573.61	210
1578.87	258
1584.12	398
1589.37	246
1594.61	302
1599.85	618
1605.08	518
1610.31	290
1615.53	190
1620.75	162
1625.96	152
1631.17	154
1636.37	156
1641.57	156
1646.76	152
1651.95	148
1657.13	140
1662.31	132
1667.48	134
1672.65	124
1677.81	128
1682.97	126
1688.12	122
1693.27	122
1698.41	114
1702.26	132