File: Mixture_Classification/Jesse_Dataset_v2/Pure Raman/Polystyrene/785nm/ps-ppo-6jan25-1,0000-map3_Y07_X03.txt
204.377	856
211.048	892
217.712	938
224.369	900
231.019	752
237.661	570
244.297	390
250.924	330
257.546	300
264.16	284
270.766	268
277.365	258
283.958	228
290.543	204
297.121	188
303.693	176
310.256	178
316.813	190
323.362	190
329.905	194
336.441	196
342.969	188
349.491	178
356.006	172
362.513	176
369.014	158
375.508	182
381.994	186
388.473	210
394.947	224
401.412	224
407.871	264
414.323	214
420.768	202
427.206	182
433.637	166
440.062	164
446.479	160
452.89	140
459.293	136
465.691	144
472.081	140
478.463	134
484.84	122
491.21	130
497.573	136
503.929	148
510.279	138
516.621	128
522.957	150
529.287	154
535.609	172
541.925	168
548.234	160
554.536	168
560.832	170
567.12	156
573.403	162
579.679	150
585.948	132
592.211	128
598.466	138
604.715	158
610.958	160
617.194	372
623.424	484
629.647	174
635.864	130
642.074	118
648.276	110
654.473	102
660.664	106
666.847	106
673.025	104
679.195	98
685.36	96
691.517	102
697.669	104
703.814	122
709.953	120
716.085	120
722.21	142
728.33	152
734.443	154
740.549	192
746.65	214
752.743	218
758.831	240
764.912	254
770.986	210
777.055	216
783.117	252
789.173	324
795.222	362
801.265	302
807.302	206
813.333	176
819.357	136
825.376	126
831.387	128
837.392	148
843.392	172
849.386	154
855.372	128
861.353	132
867.328	136
873.296	140
879.258	124
885.214	126
891.164	126
897.108	124
903.046	160
908.977	146
914.903	128
920.822	112
926.735	112
932.643	106
938.543	106
944.439	110
950.328	110
956.21	116
962.088	130
967.958	134
973.824	142
979.682	192
985.534	274
991.382	786
997.222	1224
1003.06	2924
1008.89	454
1014.71	192
1020.53	216
1026.34	508
1032.14	900
1037.94	412
1043.73	226
1049.52	164
1055.3	156
1061.08	164
1066.85	184
1072.61	182
1078.37	172
1084.12	160
1089.87	174
1095.61	162
1101.34	166
1107.07	142
1112.8	134
1118.51	128
1124.22	106
1129.93	114
1135.63	120
1141.32	144
1147.01	176
1152.69	348
1158.37	336
1164.04	208
1169.71	210
1175.37	308
1181.02	532
1186.67	440
1192.31	474
1197.95	488
1203.58	444
1209.2	324
1214.82	236
1220.44	218
1226.05	190
1231.65	174
1237.25	162
1242.84	166
1248.42	174
1254	164
1259.58	162
1265.15	182
1270.71	174
1276.27	170
1281.82	178
1287.37	182
1292.91	194
1298.45	210
1303.98	212
1309.5	238
1315.02	228
1320.53	270
1326.04	300
1331.54	288
1337.04	280
1342.53	274
1348.02	272
1353.5	262
1358.98	278
1364.45	268
1369.91	282
1375.37	268
1380.82	256
1386.27	246
1391.71	236
1397.15	234
1402.58	236
1408.01	234
1413.43	224
1418.85	204
1424.26	214
1429.66	216
1435.06	240
1440.46	280
1445.85	328
1451.23	326
1456.61	266
1461.98	222
1467.35	194
1472.71	184
1478.07	180
1483.42	180
1488.77	170
1494.11	200
1499.45	166
1504.78	170
1510.11	166
1515.43	170
1520.74	160
1526.05	160
1531.36	152
1536.66	162
1541.95	154
1547.24	162
1552.52	156
1557.8	160
1563.08	162
1568.35	178
1573.61	204
1578.87	284
1584.12	394
1589.37	258
1594.61	300
1599.85	620
1605.08	538
1610.31	278
1615.53	218
1620.75	172
1625.96	160
1631.17	152
1636.37	154
1641.57	154
1646.76	156
1651.95	150
1657.13	144
1662.31	138
1667.48	130
1672.65	124
1677.81	138
1682.97	138
1688.12	120
1693.27	112
1698.41	132
1702.26	122