File: Mixture_Classification/Jesse_Dataset_v2/Pure Raman/Polystyrene/785nm/ps-ppo-6jan25-1,0000-map3_Y00_X10.txt
204.377	828
211.048	874
217.712	914
224.369	878
231.019	730
237.661	544
244.297	378
250.924	298
257.546	276
264.16	262
270.766	252
277.365	232
283.958	204
290.543	194
297.121	176
303.693	164
310.256	150
316.813	180
323.362	172
329.905	172
336.441	154
342.969	164
349.491	152
356.006	150
362.513	146
369.014	146
375.508	168
381.994	176
388.473	184
394.947	198
401.412	206
407.871	228
414.323	198
420.768	166
427.206	156
433.637	136
440.062	132
446.479	122
452.89	118
459.293	116
465.691	108
472.081	110
478.463	102
484.84	90
491.21	96
497.573	102
503.929	114
510.279	106
516.621	102
522.957	110
529.287	134
535.609	140
541.925	158
548.234	136
554.536	138
560.832	138
567.12	134
573.403	138
579.679	110
585.948	100
592.211	100
598.466	110
604.715	126
610.958	144
617.194	316
623.424	472
629.647	146
635.864	94
642.074	86
648.276	80
654.473	80
660.664	78
666.847	74
673.025	74
679.195	78
685.36	76
691.517	72
697.669	86
703.814	102
709.953	92
716.085	98
722.21	130
728.33	136
734.443	136
740.549	160
746.65	194
752.743	200
758.831	230
764.912	218
770.986	202
777.055	180
783.117	246
789.173	308
795.222	348
801.265	274
807.302	198
813.333	160
819.357	122
825.376	116
831.387	114
837.392	146
843.392	156
849.386	136
855.372	134
861.353	124
867.328	122
873.296	114
879.258	112
885.214	104
891.164	116
897.108	130
903.046	142
908.977	148
914.903	114
920.822	102
926.735	102
932.643	98
938.543	100
944.439	102
950.328	102
956.21	108
962.088	124
967.958	142
973.824	136
979.682	188
985.534	276
991.382	790
997.222	1218
1003.06	2856
1008.89	434
1014.71	216
1020.53	218
1026.34	482
1032.14	876
1037.94	406
1043.73	208
1049.52	152
1055.3	152
1061.08	166
1066.85	172
1072.61	180
1078.37	178
1084.12	154
1089.87	156
1095.61	164
1101.34	168
1107.07	148
1112.8	120
1118.51	118
1124.22	110
1129.93	116
1135.63	114
1141.32	126
1147.01	164
1152.69	362
1158.37	330
1164.04	206
1169.71	208
1175.37	312
1181.02	530
1186.67	424
1192.31	476
1197.95	512
1203.58	466
1209.2	334
1214.82	234
1220.44	210
1226.05	202
1231.65	182
1237.25	172
1242.84	170
1248.42	164
1254	174
1259.58	162
1265.15	172
1270.71	162
1276.27	164
1281.82	182
1287.37	184
1292.91	198
1298.45	216
1303.98	230
1309.5	220
1315.02	234
1320.53	292
1326.04	312
1331.54	306
1337.04	292
1342.53	268
1348.02	258
1353.5	262
1358.98	270
1364.45	274
1369.91	284
1375.37	280
1380.82	282
1386.27	250
1391.71	242
1397.15	246
1402.58	240
1408.01	234
1413.43	230
1418.85	232
1424.26	230
1429.66	224
1435.06	246
1440.46	290
1445.85	318
1451.23	336
1456.61	262
1461.98	212
1467.35	190
1472.71	186
1478.07	186
1483.42	168
1488.77	194
1494.11	182
1499.45	178
1504.78	180
1510.11	180
1515.43	172
1520.74	176
1526.05	166
1531.36	170
1536.66	176
1541.95	166
1547.24	158
1552.52	174
1557.8	172
1563.08	168
1568.35	192
1573.61	198
1578.87	278
1584.12	400
1589.37	276
1594.61	316
1599.85	636
1605.08	568
1610.31	284
1615.53	202
1620.75	192
1625.96	168
1631.17	156
1636.37	158
1641.57	162
1646.76	142
1651.95	158
1657.13	142
1662.31	136
1667.48	136
1672.65	146
1677.81	138
1682.97	130
1688.12	136
1693.27	128
1698.41	116
1702.26	116