File: Mixture_Classification/Jesse_Dataset_v2/Pure Raman/Polystyrene/785nm/ps-ppo-6jan25-1,0000-map3_Y09_X10.txt
204.377	840
211.048	860
217.712	928
224.369	884
231.019	700
237.661	562
244.297	364
250.924	322
257.546	278
264.16	260
270.766	256
277.365	236
283.958	216
290.543	208
297.121	172
303.693	176
310.256	182
316.813	170
323.362	178
329.905	174
336.441	178
342.969	170
349.491	172
356.006	148
362.513	160
369.014	150
375.508	164
381.994	166
388.473	176
394.947	198
401.412	210
407.871	226
414.323	202
420.768	166
427.206	158
433.637	142
440.062	144
446.479	132
452.89	116
459.293	110
465.691	104
472.081	108
478.463	116
484.84	106
491.21	104
497.573	108
503.929	104
510.279	106
516.621	104
522.957	122
529.287	128
535.609	144
541.925	156
548.234	144
554.536	152
560.832	136
567.12	136
573.403	134
579.679	110
585.948	106
592.211	106
598.466	120
604.715	134
610.958	152
617.194	322
623.424	456
629.647	146
635.864	112
642.074	82
648.276	84
654.473	82
660.664	76
666.847	84
673.025	88
679.195	74
685.36	80
691.517	80
697.669	88
703.814	98
709.953	110
716.085	96
722.21	136
728.33	120
734.443	132
740.549	184
746.65	190
752.743	212
758.831	234
764.912	214
770.986	212
777.055	206
783.117	240
789.173	306
795.222	342
801.265	288
807.302	204
813.333	168
819.357	116
825.376	112
831.387	120
837.392	146
843.392	162
849.386	144
855.372	128
861.353	126
867.328	120
873.296	118
879.258	118
885.214	124
891.164	106
897.108	116
903.046	144
908.977	142
914.903	118
920.822	114
926.735	90
932.643	106
938.543	96
944.439	104
950.328	104
956.21	108
962.088	116
967.958	126
973.824	140
979.682	180
985.534	288
991.382	778
997.222	1260
1003.06	2822
1008.89	454
1014.71	172
1020.53	222
1026.34	480
1032.14	908
1037.94	394
1043.73	204
1049.52	174
1055.3	150
1061.08	168
1066.85	176
1072.61	180
1078.37	156
1084.12	176
1089.87	166
1095.61	174
1101.34	176
1107.07	144
1112.8	128
1118.51	110
1124.22	104
1129.93	116
1135.63	116
1141.32	126
1147.01	166
1152.69	356
1158.37	328
1164.04	230
1169.71	216
1175.37	312
1181.02	528
1186.67	452
1192.31	500
1197.95	510
1203.58	442
1209.2	314
1214.82	248
1220.44	224
1226.05	208
1231.65	196
1237.25	174
1242.84	162
1248.42	174
1254	184
1259.58	166
1265.15	174
1270.71	178
1276.27	168
1281.82	186
1287.37	194
1292.91	210
1298.45	208
1303.98	226
1309.5	228
1315.02	244
1320.53	286
1326.04	310
1331.54	314
1337.04	280
1342.53	292
1348.02	262
1353.5	286
1358.98	276
1364.45	274
1369.91	294
1375.37	286
1380.82	284
1386.27	252
1391.71	250
1397.15	248
1402.58	258
1408.01	234
1413.43	238
1418.85	228
1424.26	232
1429.66	234
1435.06	246
1440.46	308
1445.85	326
1451.23	348
1456.61	284
1461.98	216
1467.35	216
1472.71	204
1478.07	188
1483.42	190
1488.77	198
1494.11	188
1499.45	190
1504.78	166
1510.11	182
1515.43	168
1520.74	170
1526.05	176
1531.36	174
1536.66	178
1541.95	162
1547.24	160
1552.52	172
1557.8	180
1563.08	170
1568.35	172
1573.61	194
1578.87	280
1584.12	398
1589.37	262
1594.61	318
1599.85	638
1605.08	554
1610.31	270
1615.53	204
1620.75	190
1625.96	166
1631.17	156
1636.37	160
1641.57	158
1646.76	168
1651.95	160
1657.13	142
1662.31	130
1667.48	142
1672.65	136
1677.81	136
1682.97	130
1688.12	130
1693.27	134
1698.41	124
1702.26	128