File: Mixture_Classification/Jesse_Dataset_v2/Pure Raman/Polystyrene/785nm/ps-ppo-6jan25-1,0000-map3_Y07_X08.txt
204.377	850
211.048	900
217.712	924
224.369	884
231.019	714
237.661	558
244.297	394
250.924	330
257.546	288
264.16	270
270.766	230
277.365	252
283.958	222
290.543	192
297.121	182
303.693	174
310.256	152
316.813	172
323.362	172
329.905	184
336.441	166
342.969	164
349.491	160
356.006	160
362.513	140
369.014	158
375.508	160
381.994	168
388.473	184
394.947	198
401.412	226
407.871	254
414.323	198
420.768	172
427.206	164
433.637	136
440.062	138
446.479	130
452.89	114
459.293	114
465.691	114
472.081	116
478.463	110
484.84	90
491.21	100
497.573	114
503.929	108
510.279	118
516.621	116
522.957	112
529.287	122
535.609	146
541.925	156
548.234	136
554.536	142
560.832	138
567.12	128
573.403	138
579.679	126
585.948	112
592.211	116
598.466	112
604.715	146
610.958	148
617.194	312
623.424	462
629.647	140
635.864	118
642.074	84
648.276	84
654.473	78
660.664	84
666.847	74
673.025	80
679.195	76
685.36	72
691.517	76
697.669	84
703.814	104
709.953	96
716.085	96
722.21	140
728.33	114
734.443	140
740.549	182
746.65	192
752.743	206
758.831	262
764.912	216
770.986	206
777.055	200
783.117	250
789.173	300
795.222	342
801.265	296
807.302	188
813.333	164
819.357	126
825.376	124
831.387	118
837.392	152
843.392	152
849.386	132
855.372	142
861.353	118
867.328	122
873.296	134
879.258	114
885.214	116
891.164	116
897.108	118
903.046	146
908.977	138
914.903	118
920.822	104
926.735	96
932.643	104
938.543	98
944.439	96
950.328	98
956.21	92
962.088	114
967.958	134
973.824	140
979.682	184
985.534	280
991.382	786
997.222	1258
1003.06	2850
1008.89	440
1014.71	176
1020.53	232
1026.34	514
1032.14	886
1037.94	410
1043.73	214
1049.52	166
1055.3	160
1061.08	154
1066.85	188
1072.61	174
1078.37	182
1084.12	156
1089.87	160
1095.61	170
1101.34	154
1107.07	140
1112.8	126
1118.51	124
1124.22	104
1129.93	114
1135.63	108
1141.32	140
1147.01	170
1152.69	354
1158.37	348
1164.04	210
1169.71	222
1175.37	322
1181.02	520
1186.67	436
1192.31	480
1197.95	496
1203.58	454
1209.2	322
1214.82	242
1220.44	198
1226.05	200
1231.65	188
1237.25	174
1242.84	178
1248.42	178
1254	170
1259.58	170
1265.15	176
1270.71	170
1276.27	168
1281.82	176
1287.37	196
1292.91	206
1298.45	212
1303.98	216
1309.5	244
1315.02	246
1320.53	266
1326.04	300
1331.54	316
1337.04	284
1342.53	272
1348.02	274
1353.5	288
1358.98	286
1364.45	282
1369.91	296
1375.37	274
1380.82	270
1386.27	248
1391.71	258
1397.15	264
1402.58	244
1408.01	236
1413.43	238
1418.85	234
1424.26	238
1429.66	234
1435.06	270
1440.46	306
1445.85	332
1451.23	334
1456.61	286
1461.98	214
1467.35	194
1472.71	192
1478.07	188
1483.42	198
1488.77	196
1494.11	196
1499.45	192
1504.78	172
1510.11	180
1515.43	166
1520.74	170
1526.05	188
1531.36	170
1536.66	162
1541.95	168
1547.24	168
1552.52	162
1557.8	166
1563.08	180
1568.35	184
1573.61	204
1578.87	288
1584.12	384
1589.37	246
1594.61	324
1599.85	622
1605.08	546
1610.31	278
1615.53	200
1620.75	180
1625.96	172
1631.17	164
1636.37	156
1641.57	158
1646.76	170
1651.95	146
1657.13	142
1662.31	138
1667.48	140
1672.65	136
1677.81	136
1682.97	134
1688.12	130
1693.27	116
1698.41	130
1702.26	118