File: Mixture_Classification/Jesse_Dataset_v2/Pure Raman/Polystyrene/785nm/ps-ppo-6jan25-1,0000-map3_Y07_X06.txt
204.377	844
211.048	900
217.712	942
224.369	878
231.019	782
237.661	548
244.297	412
250.924	304
257.546	280
264.16	246
270.766	254
277.365	252
283.958	222
290.543	192
297.121	176
303.693	188
310.256	192
316.813	186
323.362	194
329.905	178
336.441	178
342.969	166
349.491	164
356.006	160
362.513	162
369.014	176
375.508	182
381.994	178
388.473	208
394.947	202
401.412	228
407.871	242
414.323	212
420.768	190
427.206	158
433.637	146
440.062	142
446.479	134
452.89	134
459.293	122
465.691	122
472.081	116
478.463	110
484.84	114
491.21	118
497.573	106
503.929	118
510.279	116
516.621	110
522.957	126
529.287	128
535.609	142
541.925	160
548.234	150
554.536	150
560.832	154
567.12	148
573.403	152
579.679	124
585.948	118
592.211	116
598.466	116
604.715	152
610.958	166
617.194	330
623.424	468
629.647	148
635.864	112
642.074	88
648.276	90
654.473	86
660.664	88
666.847	86
673.025	88
679.195	82
685.36	90
691.517	84
697.669	88
703.814	108
709.953	112
716.085	94
722.21	140
728.33	130
734.443	140
740.549	192
746.65	188
752.743	222
758.831	232
764.912	216
770.986	210
777.055	206
783.117	254
789.173	308
795.222	344
801.265	282
807.302	212
813.333	168
819.357	138
825.376	124
831.387	120
837.392	142
843.392	152
849.386	136
855.372	130
861.353	130
867.328	116
873.296	128
879.258	108
885.214	116
891.164	114
897.108	122
903.046	150
908.977	148
914.903	116
920.822	108
926.735	96
932.643	98
938.543	100
944.439	110
950.328	100
956.21	118
962.088	134
967.958	140
973.824	140
979.682	172
985.534	262
991.382	804
997.222	1236
1003.06	2820
1008.89	444
1014.71	204
1020.53	226
1026.34	496
1032.14	922
1037.94	390
1043.73	216
1049.52	170
1055.3	146
1061.08	164
1066.85	174
1072.61	180
1078.37	178
1084.12	176
1089.87	176
1095.61	178
1101.34	176
1107.07	154
1112.8	134
1118.51	128
1124.22	104
1129.93	112
1135.63	118
1141.32	134
1147.01	186
1152.69	360
1158.37	346
1164.04	230
1169.71	226
1175.37	302
1181.02	532
1186.67	432
1192.31	482
1197.95	528
1203.58	446
1209.2	324
1214.82	248
1220.44	208
1226.05	200
1231.65	186
1237.25	180
1242.84	162
1248.42	160
1254	176
1259.58	182
1265.15	174
1270.71	184
1276.27	170
1281.82	170
1287.37	182
1292.91	188
1298.45	214
1303.98	216
1309.5	232
1315.02	242
1320.53	288
1326.04	302
1331.54	290
1337.04	288
1342.53	276
1348.02	270
1353.5	278
1358.98	284
1364.45	302
1369.91	292
1375.37	286
1380.82	266
1386.27	258
1391.71	224
1397.15	228
1402.58	236
1408.01	246
1413.43	228
1418.85	226
1424.26	232
1429.66	218
1435.06	250
1440.46	306
1445.85	310
1451.23	328
1456.61	286
1461.98	224
1467.35	192
1472.71	186
1478.07	200
1483.42	170
1488.77	196
1494.11	204
1499.45	178
1504.78	174
1510.11	178
1515.43	168
1520.74	184
1526.05	172
1531.36	174
1536.66	156
1541.95	170
1547.24	170
1552.52	164
1557.8	172
1563.08	164
1568.35	180
1573.61	196
1578.87	272
1584.12	394
1589.37	264
1594.61	322
1599.85	622
1605.08	568
1610.31	278
1615.53	208
1620.75	184
1625.96	172
1631.17	154
1636.37	168
1641.57	154
1646.76	154
1651.95	154
1657.13	142
1662.31	138
1667.48	142
1672.65	144
1677.81	136
1682.97	136
1688.12	140
1693.27	124
1698.41	120
1702.26	120