File: Jesse_Dataset_v2/Pure Raman/Polystyrene/633nm/ps-ppo-7jan25-1,0000-map3_Y04_X00.txt
182.393	1008
192.79	924
203.174	972
213.542	1076
223.897	1106
234.238	854
244.566	526
254.878	386
265.178	338
275.463	336
285.734	306
295.992	262
306.236	226
316.467	248
326.684	234
336.887	252
347.075	250
357.251	218
367.413	248
377.562	248
387.697	268
397.819	270
407.926	348
418.02	304
428.101	258
438.169	222
448.223	218
458.264	198
468.291	202
478.306	178
488.307	174
498.294	190
508.269	194
518.23	186
528.177	230
538.113	256
548.034	252
557.942	260
567.838	246
577.72	264
587.589	220
597.446	218
607.289	276
617.119	438
626.936	540
636.741	236
646.533	196
656.313	176
666.078	196
675.831	176
685.571	186
695.299	184
705.014	228
714.716	250
724.406	314
734.082	296
743.746	394
753.398	452
763.037	502
772.664	460
782.278	470
791.879	674
801.467	648
811.044	398
820.608	332
830.16	302
839.699	366
849.226	360
858.741	316
868.243	320
877.731	334
887.209	310
896.674	324
906.128	382
915.569	320
924.997	282
934.414	290
943.818	286
953.211	282
962.59	328
971.958	332
981.314	480
990.659	1242
999.99	4172
1009.31	1628
1018.62	500
1027.91	1226
1037.2	1488
1046.47	510
1055.73	418
1064.98	448
1074.22	480
1083.44	460
1092.65	466
1101.86	464
1111.05	382
1120.22	324
1129.39	276
1138.54	346
1147.69	462
1156.82	1056
1165.94	512
1175.05	664
1184.14	1236
1193.23	1162
1202.3	1154
1211.36	756
1220.41	514
1229.45	460
1238.48	402
1247.5	388
1256.5	400
1265.49	362
1274.48	390
1283.45	394
1292.41	422
1301.36	432
1310.29	456
1319.22	490
1328.13	560
1337.04	534
1345.93	442
1354.81	392
1363.68	392
1372.54	400
1381.38	360
1390.22	318
1399.05	300
1407.86	286
1416.66	284
1425.46	298
1434.24	362
1443.01	536
1451.77	630
1460.52	382
1469.25	318
1477.98	308
1486.7	296
1495.4	320
1504.1	318
1512.78	270
1521.45	296
1530.11	290
1538.76	288
1547.41	310
1556.03	304
1564.65	326
1573.26	382
1581.86	824
1590.45	578
1599.02	1256
1607.59	1322
1616.14	502
1624.69	368
1633.22	328
1641.75	342
1650.26	358
1658.76	288
1667.26	304
1675.74	316
1684.21	310
1692.67	314
1701.12	312
1709.56	298
1717.99	302
1726.41	302
1734.82	284
1743.22	310
1751.61	308
1759.99	310
1768.36	310
1776.71	314
1785.06	306
1793.4	288
1801.73	294
1810.04	318
1818.35	304
1826.65	278
1834.94	304
1843.21	310
1851.48	306
1859.74	294
1867.98	302
1876.22	302
1884.45	316
1892.67	290
1900.87	326
1909.07	316
1917.26	314
1925.43	310
1933.6	314
1941.76	336
1949.91	308
1958.05	306
1966.17	304
1974.29	330
1982.4	322
1990.5	322
1998.59	314
2006.67	330
2014.74	326
2022.8	316
2030.85	328
2038.89	312
2046.92	338
2054.94	342
2062.95	312
2070.96	334
2078.95	360
2086.93	336
2094.91	342
2102.87	326
2110.83	340
2118.77	314
2126.71	324
2134.63	326
2142.55	318
2150.46	358
2158.35	334
2166.24	314
2174.12	340
2181.99	352
2189.85	340
2197.7	368
2205.55	338
2213.38	330
2221.2	342
2229.02	364
2236.82	350
2244.62	354
2252.4	350
2260.18	344
2267.95	352
2275.71	354
2283.46	340
2291.2	366
2298.93	338
2306.65	354
2314.37	334
2322.07	356
2329.77	358
2337.45	360
2345.13	358
2352.8	358
2360.46	346
2368.11	362
2375.75	346
2383.38	342
2391.01	358
2398.62	330
2406.23	368
2413.82	356
2421.41	364
2428.99	388
2436.56	370
2444.12	358
2449.79	386