File: Jesse_Dataset_v2/Pure Raman/Polystyrene/633nm/ps-ppo-7jan25-1,0000-map3_Y08_X08.txt
182.393	1054
192.79	996
203.174	964
213.542	1094
223.897	1110
234.238	876
244.566	572
254.878	410
265.178	378
275.463	350
285.734	316
295.992	284
306.236	246
316.467	284
326.684	262
336.887	264
347.075	274
357.251	262
367.413	238
377.562	280
387.697	288
397.819	306
407.926	378
418.02	304
428.101	262
438.169	248
448.223	232
458.264	212
468.291	206
478.306	188
488.307	192
498.294	180
508.269	218
518.23	206
528.177	234
538.113	272
548.034	270
557.942	280
567.838	252
577.72	274
587.589	234
597.446	210
607.289	254
617.119	420
626.936	550
636.741	220
646.533	182
656.313	192
666.078	172
675.831	186
685.571	180
695.299	184
705.014	222
714.716	216
724.406	308
734.082	280
743.746	376
753.398	430
763.037	476
772.664	430
782.278	476
791.879	680
801.467	632
811.044	416
820.608	304
830.16	276
839.699	354
849.226	344
858.741	312
868.243	308
877.731	308
887.209	308
896.674	294
906.128	378
915.569	298
924.997	272
934.414	266
943.818	268
953.211	288
962.59	308
971.958	330
981.314	490
990.659	1188
999.99	4266
1009.31	1576
1018.62	454
1027.91	1188
1037.2	1412
1046.47	492
1055.73	416
1064.98	424
1074.22	462
1083.44	422
1092.65	446
1101.86	460
1111.05	380
1120.22	340
1129.39	298
1138.54	330
1147.69	422
1156.82	994
1165.94	528
1175.05	666
1184.14	1208
1193.23	1148
1202.3	1196
1211.36	744
1220.41	496
1229.45	474
1238.48	390
1247.5	386
1256.5	372
1265.49	370
1274.48	358
1283.45	354
1292.41	396
1301.36	434
1310.29	444
1319.22	486
1328.13	586
1337.04	522
1345.93	422
1354.81	402
1363.68	396
1372.54	404
1381.38	370
1390.22	300
1399.05	288
1407.86	308
1416.66	280
1425.46	264
1434.24	356
1443.01	530
1451.77	654
1460.52	400
1469.25	296
1477.98	288
1486.7	300
1495.4	336
1504.1	302
1512.78	264
1521.45	294
1530.11	320
1538.76	274
1547.41	296
1556.03	312
1564.65	332
1573.26	418
1581.86	820
1590.45	646
1599.02	1244
1607.59	1318
1616.14	500
1624.69	374
1633.22	346
1641.75	338
1650.26	364
1658.76	320
1667.26	304
1675.74	304
1684.21	310
1692.67	310
1701.12	308
1709.56	294
1717.99	296
1726.41	302
1734.82	316
1743.22	332
1751.61	302
1759.99	328
1768.36	282
1776.71	314
1785.06	276
1793.4	330
1801.73	308
1810.04	322
1818.35	304
1826.65	322
1834.94	308
1843.21	308
1851.48	306
1859.74	298
1867.98	294
1876.22	332
1884.45	300
1892.67	306
1900.87	306
1909.07	318
1917.26	312
1925.43	328
1933.6	322
1941.76	334
1949.91	320
1958.05	298
1966.17	318
1974.29	310
1982.4	326
1990.5	326
1998.59	324
2006.67	332
2014.74	316
2022.8	342
2030.85	318
2038.89	342
2046.92	338
2054.94	346
2062.95	350
2070.96	346
2078.95	330
2086.93	336
2094.91	348
2102.87	344
2110.83	332
2118.77	342
2126.71	340
2134.63	340
2142.55	352
2150.46	358
2158.35	344
2166.24	346
2174.12	340
2181.99	346
2189.85	332
2197.7	350
2205.55	344
2213.38	336
2221.2	346
2229.02	364
2236.82	364
2244.62	344
2252.4	354
2260.18	336
2267.95	342
2275.71	346
2283.46	340
2291.2	334
2298.93	362
2306.65	348
2314.37	360
2322.07	356
2329.77	362
2337.45	358
2345.13	352
2352.8	346
2360.46	352
2368.11	374
2375.75	364
2383.38	370
2391.01	360
2398.62	366
2406.23	370
2413.82	350
2421.41	342
2428.99	380
2436.56	370
2444.12	374
2449.79	394