File: Jesse_Dataset_v2/Pure Raman/Polystyrene/633nm/ps-ppo-7jan25-1,0000-map3_Y08_X10.txt
182.393	1018
192.79	976
203.174	954
213.542	1054
223.897	1058
234.238	820
244.566	502
254.878	402
265.178	318
275.463	316
285.734	284
295.992	236
306.236	240
316.467	248
326.684	242
336.887	238
347.075	220
357.251	206
367.413	198
377.562	236
387.697	248
397.819	296
407.926	344
418.02	274
428.101	248
438.169	224
448.223	214
458.264	176
468.291	180
478.306	180
488.307	178
498.294	182
508.269	200
518.23	190
528.177	210
538.113	248
548.034	252
557.942	246
567.838	258
577.72	252
587.589	216
597.446	230
607.289	254
617.119	408
626.936	486
636.741	232
646.533	184
656.313	170
666.078	184
675.831	178
685.571	184
695.299	180
705.014	224
714.716	222
724.406	290
734.082	280
743.746	386
753.398	422
763.037	506
772.664	460
782.278	452
791.879	624
801.467	630
811.044	402
820.608	302
830.16	244
839.699	334
849.226	328
858.741	296
868.243	300
877.731	300
887.209	280
896.674	286
906.128	370
915.569	312
924.997	268
934.414	256
943.818	268
953.211	256
962.59	270
971.958	334
981.314	466
990.659	1194
999.99	4246
1009.31	1560
1018.62	450
1027.91	1202
1037.2	1424
1046.47	488
1055.73	400
1064.98	434
1074.22	446
1083.44	404
1092.65	442
1101.86	414
1111.05	352
1120.22	310
1129.39	260
1138.54	274
1147.69	392
1156.82	1002
1165.94	534
1175.05	652
1184.14	1232
1193.23	1140
1202.3	1170
1211.36	714
1220.41	494
1229.45	432
1238.48	376
1247.5	358
1256.5	368
1265.49	340
1274.48	350
1283.45	348
1292.41	402
1301.36	414
1310.29	438
1319.22	448
1328.13	542
1337.04	482
1345.93	392
1354.81	380
1363.68	396
1372.54	374
1381.38	344
1390.22	288
1399.05	272
1407.86	268
1416.66	288
1425.46	268
1434.24	322
1443.01	488
1451.77	608
1460.52	378
1469.25	290
1477.98	262
1486.7	294
1495.4	306
1504.1	260
1512.78	266
1521.45	272
1530.11	274
1538.76	264
1547.41	272
1556.03	290
1564.65	314
1573.26	390
1581.86	812
1590.45	598
1599.02	1250
1607.59	1320
1616.14	492
1624.69	364
1633.22	320
1641.75	336
1650.26	338
1658.76	292
1667.26	274
1675.74	278
1684.21	282
1692.67	292
1701.12	278
1709.56	268
1717.99	280
1726.41	294
1734.82	286
1743.22	276
1751.61	262
1759.99	264
1768.36	280
1776.71	300
1785.06	278
1793.4	268
1801.73	288
1810.04	296
1818.35	302
1826.65	282
1834.94	284
1843.21	302
1851.48	296
1859.74	274
1867.98	278
1876.22	290
1884.45	286
1892.67	300
1900.87	298
1909.07	286
1917.26	306
1925.43	306
1933.6	304
1941.76	290
1949.91	312
1958.05	304
1966.17	304
1974.29	320
1982.4	296
1990.5	316
1998.59	304
2006.67	324
2014.74	298
2022.8	290
2030.85	302
2038.89	316
2046.92	320
2054.94	320
2062.95	324
2070.96	322
2078.95	330
2086.93	342
2094.91	316
2102.87	320
2110.83	316
2118.77	336
2126.71	344
2134.63	330
2142.55	344
2150.46	314
2158.35	330
2166.24	326
2174.12	330
2181.99	314
2189.85	326
2197.7	352
2205.55	344
2213.38	354
2221.2	340
2229.02	326
2236.82	334
2244.62	332
2252.4	326
2260.18	356
2267.95	340
2275.71	348
2283.46	340
2291.2	364
2298.93	354
2306.65	338
2314.37	348
2322.07	344
2329.77	362
2337.45	328
2345.13	358
2352.8	362
2360.46	344
2368.11	358
2375.75	354
2383.38	342
2391.01	346
2398.62	346
2406.23	352
2413.82	366
2421.41	356
2428.99	350
2436.56	370
2444.12	358
2449.79	382