File: Jesse_Dataset_v2/Pure Raman/Polystyrene/633nm/ps-ppo-7jan25-1,0000-map3_Y07_X00.txt
182.393	1070
192.79	962
203.174	974
213.542	1064
223.897	1078
234.238	842
244.566	514
254.878	380
265.178	350
275.463	358
285.734	312
295.992	262
306.236	256
316.467	258
326.684	250
336.887	254
347.075	246
357.251	224
367.413	232
377.562	248
387.697	266
397.819	318
407.926	360
418.02	296
428.101	246
438.169	236
448.223	220
458.264	196
468.291	198
478.306	186
488.307	192
498.294	182
508.269	196
518.23	200
528.177	236
538.113	260
548.034	256
557.942	268
567.838	276
577.72	248
587.589	216
597.446	224
607.289	270
617.119	444
626.936	526
636.741	214
646.533	182
656.313	168
666.078	172
675.831	182
685.571	192
695.299	182
705.014	238
714.716	214
724.406	294
734.082	294
743.746	392
753.398	446
763.037	492
772.664	436
782.278	490
791.879	652
801.467	652
811.044	418
820.608	334
830.16	268
839.699	354
849.226	348
858.741	316
868.243	314
877.731	308
887.209	296
896.674	274
906.128	376
915.569	334
924.997	276
934.414	270
943.818	268
953.211	266
962.59	312
971.958	326
981.314	468
990.659	1180
999.99	4264
1009.31	1616
1018.62	444
1027.91	1202
1037.2	1458
1046.47	456
1055.73	404
1064.98	438
1074.22	440
1083.44	438
1092.65	404
1101.86	432
1111.05	372
1120.22	328
1129.39	304
1138.54	296
1147.69	416
1156.82	994
1165.94	522
1175.05	646
1184.14	1238
1193.23	1196
1202.3	1166
1211.36	746
1220.41	468
1229.45	426
1238.48	390
1247.5	380
1256.5	374
1265.49	386
1274.48	352
1283.45	358
1292.41	376
1301.36	424
1310.29	432
1319.22	476
1328.13	568
1337.04	490
1345.93	412
1354.81	380
1363.68	412
1372.54	362
1381.38	364
1390.22	306
1399.05	296
1407.86	264
1416.66	280
1425.46	294
1434.24	352
1443.01	516
1451.77	632
1460.52	408
1469.25	320
1477.98	284
1486.7	304
1495.4	314
1504.1	278
1512.78	278
1521.45	292
1530.11	258
1538.76	310
1547.41	290
1556.03	332
1564.65	344
1573.26	380
1581.86	820
1590.45	624
1599.02	1218
1607.59	1322
1616.14	482
1624.69	372
1633.22	360
1641.75	348
1650.26	352
1658.76	318
1667.26	298
1675.74	284
1684.21	304
1692.67	290
1701.12	314
1709.56	294
1717.99	284
1726.41	284
1734.82	310
1743.22	292
1751.61	286
1759.99	292
1768.36	302
1776.71	288
1785.06	316
1793.4	294
1801.73	300
1810.04	330
1818.35	308
1826.65	314
1834.94	320
1843.21	294
1851.48	306
1859.74	304
1867.98	298
1876.22	326
1884.45	308
1892.67	302
1900.87	306
1909.07	326
1917.26	324
1925.43	340
1933.6	314
1941.76	346
1949.91	282
1958.05	312
1966.17	320
1974.29	324
1982.4	318
1990.5	314
1998.59	314
2006.67	314
2014.74	322
2022.8	324
2030.85	326
2038.89	326
2046.92	326
2054.94	322
2062.95	328
2070.96	318
2078.95	312
2086.93	340
2094.91	308
2102.87	342
2110.83	338
2118.77	338
2126.71	334
2134.63	318
2142.55	332
2150.46	344
2158.35	344
2166.24	326
2174.12	334
2181.99	342
2189.85	316
2197.7	312
2205.55	344
2213.38	340
2221.2	350
2229.02	332
2236.82	326
2244.62	346
2252.4	328
2260.18	330
2267.95	348
2275.71	334
2283.46	334
2291.2	348
2298.93	316
2306.65	356
2314.37	328
2322.07	346
2329.77	340
2337.45	348
2345.13	360
2352.8	350
2360.46	350
2368.11	358
2375.75	352
2383.38	366
2391.01	340
2398.62	336
2406.23	358
2413.82	358
2421.41	360
2428.99	352
2436.56	362
2444.12	350
2449.79	372