File: Jesse_Dataset_v2/Pure Raman/Polystyrene/633nm/ps-ppo-7jan25-1,0000-map3_Y07_X08.txt
182.393	1080
192.79	948
203.174	966
213.542	1086
223.897	1080
234.238	874
244.566	576
254.878	420
265.178	366
275.463	344
285.734	338
295.992	304
306.236	276
316.467	270
326.684	282
336.887	270
347.075	256
357.251	250
367.413	272
377.562	268
387.697	288
397.819	336
407.926	402
418.02	318
428.101	268
438.169	258
448.223	238
458.264	218
468.291	212
478.306	214
488.307	208
498.294	196
508.269	222
518.23	220
528.177	232
538.113	302
548.034	278
557.942	286
567.838	244
577.72	260
587.589	236
597.446	252
607.289	278
617.119	462
626.936	554
636.741	256
646.533	200
656.313	200
666.078	190
675.831	200
685.571	212
695.299	198
705.014	250
714.716	228
724.406	324
734.082	304
743.746	396
753.398	450
763.037	506
772.664	442
782.278	484
791.879	698
801.467	654
811.044	418
820.608	324
830.16	288
839.699	374
849.226	364
858.741	354
868.243	334
877.731	320
887.209	328
896.674	322
906.128	392
915.569	330
924.997	286
934.414	296
943.818	282
953.211	322
962.59	348
971.958	364
981.314	490
990.659	1230
999.99	4256
1009.31	1612
1018.62	504
1027.91	1196
1037.2	1470
1046.47	526
1055.73	440
1064.98	480
1074.22	470
1083.44	458
1092.65	452
1101.86	460
1111.05	388
1120.22	334
1129.39	334
1138.54	334
1147.69	436
1156.82	1022
1165.94	538
1175.05	662
1184.14	1226
1193.23	1174
1202.3	1176
1211.36	756
1220.41	522
1229.45	452
1238.48	420
1247.5	396
1256.5	388
1265.49	380
1274.48	358
1283.45	378
1292.41	390
1301.36	452
1310.29	456
1319.22	482
1328.13	568
1337.04	522
1345.93	450
1354.81	408
1363.68	386
1372.54	416
1381.38	372
1390.22	294
1399.05	304
1407.86	308
1416.66	280
1425.46	288
1434.24	364
1443.01	518
1451.77	610
1460.52	402
1469.25	316
1477.98	306
1486.7	294
1495.4	320
1504.1	290
1512.78	276
1521.45	282
1530.11	306
1538.76	304
1547.41	314
1556.03	314
1564.65	324
1573.26	402
1581.86	842
1590.45	614
1599.02	1254
1607.59	1312
1616.14	500
1624.69	380
1633.22	320
1641.75	360
1650.26	374
1658.76	324
1667.26	320
1675.74	312
1684.21	314
1692.67	308
1701.12	292
1709.56	300
1717.99	312
1726.41	304
1734.82	300
1743.22	316
1751.61	306
1759.99	298
1768.36	294
1776.71	310
1785.06	318
1793.4	294
1801.73	328
1810.04	312
1818.35	340
1826.65	304
1834.94	294
1843.21	304
1851.48	330
1859.74	314
1867.98	316
1876.22	312
1884.45	304
1892.67	320
1900.87	312
1909.07	304
1917.26	320
1925.43	344
1933.6	308
1941.76	328
1949.91	312
1958.05	326
1966.17	322
1974.29	320
1982.4	328
1990.5	336
1998.59	320
2006.67	328
2014.74	326
2022.8	332
2030.85	332
2038.89	336
2046.92	338
2054.94	314
2062.95	326
2070.96	318
2078.95	310
2086.93	334
2094.91	348
2102.87	352
2110.83	344
2118.77	360
2126.71	366
2134.63	330
2142.55	338
2150.46	348
2158.35	342
2166.24	348
2174.12	350
2181.99	356
2189.85	354
2197.7	340
2205.55	334
2213.38	364
2221.2	342
2229.02	346
2236.82	338
2244.62	340
2252.4	356
2260.18	346
2267.95	350
2275.71	332
2283.46	354
2291.2	352
2298.93	344
2306.65	360
2314.37	344
2322.07	340
2329.77	350
2337.45	350
2345.13	378
2352.8	370
2360.46	358
2368.11	348
2375.75	360
2383.38	356
2391.01	354
2398.62	344
2406.23	350
2413.82	368
2421.41	374
2428.99	362
2436.56	360
2444.12	390
2449.79	384