File: Jesse_Dataset_v2/Pure Raman/Polystyrene/633nm/ps-ppo-7jan25-1,0000-map3_Y06_X02.txt
182.393	1008
192.79	948
203.174	964
213.542	1052
223.897	1058
234.238	820
244.566	510
254.878	402
265.178	356
275.463	336
285.734	296
295.992	250
306.236	246
316.467	234
326.684	236
336.887	242
347.075	228
357.251	216
367.413	206
377.562	228
387.697	264
397.819	274
407.926	342
418.02	284
428.101	234
438.169	226
448.223	212
458.264	168
468.291	174
478.306	172
488.307	176
498.294	192
508.269	184
518.23	184
528.177	230
538.113	242
548.034	256
557.942	246
567.838	240
577.72	236
587.589	190
597.446	212
607.289	260
617.119	428
626.936	536
636.741	228
646.533	178
656.313	160
666.078	166
675.831	166
685.571	172
695.299	174
705.014	210
714.716	206
724.406	294
734.082	266
743.746	380
753.398	406
763.037	470
772.664	436
782.278	460
791.879	642
801.467	626
811.044	382
820.608	284
830.16	258
839.699	320
849.226	330
858.741	292
868.243	284
877.731	302
887.209	282
896.674	278
906.128	352
915.569	294
924.997	250
934.414	250
943.818	258
953.211	246
962.59	316
971.958	336
981.314	488
990.659	1176
999.99	4196
1009.31	1588
1018.62	466
1027.91	1180
1037.2	1408
1046.47	486
1055.73	376
1064.98	422
1074.22	436
1083.44	436
1092.65	422
1101.86	414
1111.05	370
1120.22	308
1129.39	288
1138.54	292
1147.69	416
1156.82	958
1165.94	516
1175.05	642
1184.14	1176
1193.23	1124
1202.3	1146
1211.36	706
1220.41	488
1229.45	436
1238.48	386
1247.5	352
1256.5	334
1265.49	344
1274.48	338
1283.45	334
1292.41	392
1301.36	402
1310.29	406
1319.22	462
1328.13	538
1337.04	490
1345.93	400
1354.81	358
1363.68	390
1372.54	354
1381.38	364
1390.22	276
1399.05	266
1407.86	258
1416.66	260
1425.46	268
1434.24	308
1443.01	498
1451.77	610
1460.52	390
1469.25	252
1477.98	264
1486.7	272
1495.4	302
1504.1	240
1512.78	250
1521.45	270
1530.11	288
1538.76	268
1547.41	280
1556.03	290
1564.65	312
1573.26	356
1581.86	792
1590.45	568
1599.02	1232
1607.59	1270
1616.14	484
1624.69	350
1633.22	330
1641.75	344
1650.26	348
1658.76	282
1667.26	272
1675.74	278
1684.21	288
1692.67	294
1701.12	274
1709.56	282
1717.99	266
1726.41	262
1734.82	274
1743.22	266
1751.61	286
1759.99	280
1768.36	260
1776.71	288
1785.06	272
1793.4	266
1801.73	292
1810.04	278
1818.35	290
1826.65	286
1834.94	290
1843.21	288
1851.48	304
1859.74	272
1867.98	280
1876.22	284
1884.45	304
1892.67	274
1900.87	286
1909.07	294
1917.26	312
1925.43	300
1933.6	308
1941.76	296
1949.91	308
1958.05	300
1966.17	308
1974.29	300
1982.4	318
1990.5	282
1998.59	316
2006.67	306
2014.74	310
2022.8	314
2030.85	296
2038.89	314
2046.92	306
2054.94	292
2062.95	314
2070.96	294
2078.95	320
2086.93	326
2094.91	298
2102.87	300
2110.83	312
2118.77	322
2126.71	316
2134.63	312
2142.55	312
2150.46	320
2158.35	314
2166.24	310
2174.12	344
2181.99	330
2189.85	342
2197.7	306
2205.55	326
2213.38	324
2221.2	328
2229.02	316
2236.82	340
2244.62	346
2252.4	320
2260.18	320
2267.95	336
2275.71	338
2283.46	322
2291.2	324
2298.93	342
2306.65	344
2314.37	340
2322.07	356
2329.77	326
2337.45	334
2345.13	348
2352.8	338
2360.46	358
2368.11	326
2375.75	334
2383.38	338
2391.01	342
2398.62	358
2406.23	344
2413.82	340
2421.41	348
2428.99	342
2436.56	340
2444.12	354
2449.79	370