File: Jesse_Dataset_v2/Pure Raman/Polystyrene/633nm/ps-ppo-7jan25-1,0000-map3_Y01_X09.txt
182.393	1002
192.79	952
203.174	976
213.542	1016
223.897	1072
234.238	842
244.566	518
254.878	388
265.178	322
275.463	340
285.734	284
295.992	260
306.236	250
316.467	230
326.684	248
336.887	238
347.075	224
357.251	216
367.413	220
377.562	234
387.697	278
397.819	284
407.926	358
418.02	276
428.101	256
438.169	234
448.223	212
458.264	186
468.291	158
478.306	174
488.307	192
498.294	184
508.269	204
518.23	198
528.177	212
538.113	260
548.034	256
557.942	248
567.838	258
577.72	260
587.589	214
597.446	210
607.289	262
617.119	428
626.936	542
636.741	216
646.533	184
656.313	182
666.078	176
675.831	166
685.571	178
695.299	178
705.014	220
714.716	224
724.406	280
734.082	280
743.746	360
753.398	392
763.037	462
772.664	420
782.278	446
791.879	638
801.467	636
811.044	382
820.608	298
830.16	272
839.699	370
849.226	344
858.741	308
868.243	282
877.731	298
887.209	282
896.674	288
906.128	372
915.569	304
924.997	256
934.414	266
943.818	264
953.211	282
962.59	296
971.958	334
981.314	464
990.659	1192
999.99	4234
1009.31	1582
1018.62	456
1027.91	1184
1037.2	1452
1046.47	506
1055.73	390
1064.98	402
1074.22	466
1083.44	430
1092.65	454
1101.86	422
1111.05	370
1120.22	312
1129.39	306
1138.54	306
1147.69	436
1156.82	964
1165.94	508
1175.05	630
1184.14	1230
1193.23	1146
1202.3	1164
1211.36	764
1220.41	484
1229.45	442
1238.48	392
1247.5	362
1256.5	384
1265.49	370
1274.48	348
1283.45	354
1292.41	392
1301.36	424
1310.29	426
1319.22	486
1328.13	544
1337.04	502
1345.93	442
1354.81	400
1363.68	398
1372.54	404
1381.38	368
1390.22	282
1399.05	282
1407.86	302
1416.66	286
1425.46	286
1434.24	324
1443.01	502
1451.77	636
1460.52	414
1469.25	296
1477.98	296
1486.7	288
1495.4	330
1504.1	292
1512.78	294
1521.45	274
1530.11	288
1538.76	292
1547.41	292
1556.03	302
1564.65	328
1573.26	398
1581.86	808
1590.45	594
1599.02	1228
1607.59	1340
1616.14	518
1624.69	388
1633.22	334
1641.75	328
1650.26	354
1658.76	332
1667.26	314
1675.74	318
1684.21	306
1692.67	312
1701.12	290
1709.56	292
1717.99	302
1726.41	294
1734.82	308
1743.22	310
1751.61	312
1759.99	316
1768.36	312
1776.71	310
1785.06	296
1793.4	312
1801.73	318
1810.04	316
1818.35	312
1826.65	322
1834.94	306
1843.21	312
1851.48	296
1859.74	300
1867.98	312
1876.22	302
1884.45	308
1892.67	336
1900.87	318
1909.07	310
1917.26	312
1925.43	342
1933.6	320
1941.76	324
1949.91	326
1958.05	354
1966.17	326
1974.29	302
1982.4	340
1990.5	334
1998.59	348
2006.67	338
2014.74	324
2022.8	340
2030.85	322
2038.89	334
2046.92	324
2054.94	340
2062.95	326
2070.96	320
2078.95	354
2086.93	340
2094.91	350
2102.87	358
2110.83	334
2118.77	346
2126.71	362
2134.63	354
2142.55	348
2150.46	330
2158.35	356
2166.24	342
2174.12	332
2181.99	360
2189.85	346
2197.7	338
2205.55	352
2213.38	352
2221.2	324
2229.02	368
2236.82	338
2244.62	350
2252.4	368
2260.18	352
2267.95	340
2275.71	354
2283.46	354
2291.2	378
2298.93	354
2306.65	372
2314.37	378
2322.07	362
2329.77	356
2337.45	368
2345.13	352
2352.8	362
2360.46	358
2368.11	382
2375.75	372
2383.38	380
2391.01	368
2398.62	390
2406.23	368
2413.82	390
2421.41	382
2428.99	370
2436.56	380
2444.12	386
2449.79	394