File: Jesse_Dataset_v2/Pure Raman/Polystyrene/633nm/ps-ppo-7jan25-1,0000-map3_Y03_X10.txt
182.393	1048
192.79	966
203.174	1004
213.542	1068
223.897	1106
234.238	884
244.566	554
254.878	404
265.178	370
275.463	352
285.734	308
295.992	264
306.236	258
316.467	274
326.684	272
336.887	256
347.075	264
357.251	248
367.413	228
377.562	252
387.697	288
397.819	324
407.926	376
418.02	312
428.101	272
438.169	242
448.223	236
458.264	232
468.291	198
478.306	214
488.307	198
498.294	218
508.269	232
518.23	234
528.177	222
538.113	276
548.034	284
557.942	290
567.838	288
577.72	284
587.589	228
597.446	240
607.289	272
617.119	416
626.936	544
636.741	268
646.533	216
656.313	206
666.078	192
675.831	182
685.571	196
695.299	206
705.014	240
714.716	222
724.406	336
734.082	280
743.746	398
753.398	446
763.037	500
772.664	444
782.278	490
791.879	682
801.467	662
811.044	404
820.608	304
830.16	288
839.699	358
849.226	364
858.741	294
868.243	318
877.731	310
887.209	306
896.674	296
906.128	374
915.569	312
924.997	266
934.414	242
943.818	282
953.211	306
962.59	320
971.958	336
981.314	456
990.659	1238
999.99	4162
1009.31	1584
1018.62	470
1027.91	1198
1037.2	1466
1046.47	496
1055.73	416
1064.98	422
1074.22	476
1083.44	452
1092.65	448
1101.86	432
1111.05	378
1120.22	312
1129.39	298
1138.54	304
1147.69	422
1156.82	1004
1165.94	546
1175.05	630
1184.14	1210
1193.23	1164
1202.3	1190
1211.36	750
1220.41	508
1229.45	462
1238.48	376
1247.5	378
1256.5	368
1265.49	370
1274.48	394
1283.45	382
1292.41	376
1301.36	428
1310.29	422
1319.22	472
1328.13	560
1337.04	506
1345.93	414
1354.81	384
1363.68	382
1372.54	370
1381.38	362
1390.22	306
1399.05	298
1407.86	306
1416.66	278
1425.46	284
1434.24	352
1443.01	496
1451.77	632
1460.52	404
1469.25	306
1477.98	286
1486.7	288
1495.4	302
1504.1	276
1512.78	270
1521.45	276
1530.11	302
1538.76	288
1547.41	278
1556.03	314
1564.65	332
1573.26	390
1581.86	820
1590.45	622
1599.02	1242
1607.59	1266
1616.14	462
1624.69	382
1633.22	340
1641.75	342
1650.26	344
1658.76	312
1667.26	310
1675.74	300
1684.21	306
1692.67	320
1701.12	298
1709.56	300
1717.99	288
1726.41	296
1734.82	308
1743.22	282
1751.61	298
1759.99	284
1768.36	292
1776.71	300
1785.06	312
1793.4	304
1801.73	294
1810.04	324
1818.35	310
1826.65	308
1834.94	284
1843.21	312
1851.48	298
1859.74	312
1867.98	294
1876.22	306
1884.45	310
1892.67	308
1900.87	314
1909.07	332
1917.26	340
1925.43	326
1933.6	322
1941.76	330
1949.91	340
1958.05	308
1966.17	330
1974.29	306
1982.4	344
1990.5	332
1998.59	312
2006.67	320
2014.74	314
2022.8	332
2030.85	340
2038.89	350
2046.92	328
2054.94	338
2062.95	314
2070.96	342
2078.95	338
2086.93	340
2094.91	344
2102.87	360
2110.83	340
2118.77	336
2126.71	340
2134.63	358
2142.55	360
2150.46	354
2158.35	364
2166.24	358
2174.12	336
2181.99	346
2189.85	324
2197.7	344
2205.55	354
2213.38	348
2221.2	350
2229.02	338
2236.82	338
2244.62	358
2252.4	352
2260.18	340
2267.95	372
2275.71	362
2283.46	362
2291.2	342
2298.93	344
2306.65	374
2314.37	346
2322.07	340
2329.77	364
2337.45	374
2345.13	358
2352.8	340
2360.46	360
2368.11	362
2375.75	342
2383.38	372
2391.01	378
2398.62	360
2406.23	360
2413.82	358
2421.41	380
2428.99	372
2436.56	360
2444.12	384
2449.79	372