File: Jesse_Dataset_v2/Pure Raman/Polystyrene/633nm/ps-ppo-7jan25-1,0000-map3_Y04_X06.txt
182.393	1002
192.79	902
203.174	928
213.542	1008
223.897	1004
234.238	814
244.566	518
254.878	342
265.178	304
275.463	304
285.734	260
295.992	216
306.236	210
316.467	208
326.684	226
336.887	224
347.075	212
357.251	200
367.413	196
377.562	206
387.697	254
397.819	266
407.926	330
418.02	276
428.101	228
438.169	208
448.223	208
458.264	172
468.291	156
478.306	160
488.307	168
498.294	168
508.269	190
518.23	176
528.177	202
538.113	232
548.034	236
557.942	230
567.838	228
577.72	244
587.589	210
597.446	214
607.289	254
617.119	414
626.936	538
636.741	232
646.533	180
656.313	168
666.078	162
675.831	156
685.571	170
695.299	172
705.014	198
714.716	216
724.406	304
734.082	276
743.746	388
753.398	404
763.037	470
772.664	422
782.278	456
791.879	636
801.467	638
811.044	384
820.608	300
830.16	264
839.699	336
849.226	330
858.741	296
868.243	298
877.731	300
887.209	282
896.674	274
906.128	348
915.569	300
924.997	260
934.414	250
943.818	244
953.211	276
962.59	292
971.958	314
981.314	426
990.659	1162
999.99	4172
1009.31	1570
1018.62	452
1027.91	1170
1037.2	1430
1046.47	462
1055.73	390
1064.98	392
1074.22	418
1083.44	414
1092.65	414
1101.86	410
1111.05	328
1120.22	278
1129.39	258
1138.54	284
1147.69	412
1156.82	964
1165.94	508
1175.05	610
1184.14	1204
1193.23	1116
1202.3	1150
1211.36	730
1220.41	454
1229.45	396
1238.48	350
1247.5	358
1256.5	342
1265.49	346
1274.48	324
1283.45	334
1292.41	346
1301.36	402
1310.29	402
1319.22	450
1328.13	520
1337.04	472
1345.93	394
1354.81	358
1363.68	358
1372.54	376
1381.38	318
1390.22	264
1399.05	262
1407.86	272
1416.66	246
1425.46	264
1434.24	300
1443.01	476
1451.77	598
1460.52	360
1469.25	262
1477.98	246
1486.7	252
1495.4	296
1504.1	242
1512.78	246
1521.45	244
1530.11	246
1538.76	246
1547.41	276
1556.03	284
1564.65	296
1573.26	338
1581.86	790
1590.45	588
1599.02	1214
1607.59	1292
1616.14	430
1624.69	352
1633.22	286
1641.75	312
1650.26	324
1658.76	276
1667.26	280
1675.74	274
1684.21	266
1692.67	274
1701.12	282
1709.56	242
1717.99	282
1726.41	258
1734.82	274
1743.22	268
1751.61	260
1759.99	262
1768.36	262
1776.71	278
1785.06	270
1793.4	284
1801.73	276
1810.04	268
1818.35	280
1826.65	278
1834.94	280
1843.21	280
1851.48	268
1859.74	288
1867.98	294
1876.22	284
1884.45	274
1892.67	294
1900.87	298
1909.07	294
1917.26	280
1925.43	304
1933.6	314
1941.76	294
1949.91	282
1958.05	312
1966.17	302
1974.29	300
1982.4	300
1990.5	274
1998.59	288
2006.67	302
2014.74	302
2022.8	304
2030.85	306
2038.89	310
2046.92	316
2054.94	306
2062.95	318
2070.96	282
2078.95	304
2086.93	314
2094.91	306
2102.87	312
2110.83	302
2118.77	320
2126.71	318
2134.63	306
2142.55	322
2150.46	324
2158.35	328
2166.24	314
2174.12	332
2181.99	326
2189.85	328
2197.7	330
2205.55	322
2213.38	316
2221.2	308
2229.02	328
2236.82	342
2244.62	328
2252.4	318
2260.18	320
2267.95	336
2275.71	338
2283.46	350
2291.2	344
2298.93	314
2306.65	330
2314.37	336
2322.07	342
2329.77	332
2337.45	346
2345.13	332
2352.8	342
2360.46	364
2368.11	334
2375.75	330
2383.38	326
2391.01	342
2398.62	348
2406.23	342
2413.82	338
2421.41	330
2428.99	338
2436.56	346
2444.12	352
2449.79	360