File: Jesse_Dataset_v2/Pure Raman/Polystyrene/633nm/ps-ppo-7jan25-1,0000-map3_Y00_X02.txt
182.393	1042
192.79	990
203.174	940
213.542	1108
223.897	1128
234.238	882
244.566	568
254.878	438
265.178	376
275.463	376
285.734	340
295.992	302
306.236	268
316.467	296
326.684	298
336.887	304
347.075	284
357.251	270
367.413	266
377.562	286
387.697	300
397.819	326
407.926	408
418.02	326
428.101	288
438.169	272
448.223	250
458.264	240
468.291	240
478.306	236
488.307	224
498.294	246
508.269	232
518.23	256
528.177	238
538.113	292
548.034	310
557.942	304
567.838	296
577.72	286
587.589	272
597.446	252
607.289	312
617.119	480
626.936	598
636.741	266
646.533	234
656.313	228
666.078	220
675.831	218
685.571	236
695.299	228
705.014	264
714.716	236
724.406	324
734.082	326
743.746	414
753.398	462
763.037	514
772.664	470
782.278	472
791.879	682
801.467	684
811.044	426
820.608	334
830.16	326
839.699	374
849.226	372
858.741	322
868.243	338
877.731	314
887.209	306
896.674	344
906.128	374
915.569	340
924.997	308
934.414	306
943.818	286
953.211	316
962.59	342
971.958	372
981.314	466
990.659	1188
999.99	4190
1009.31	1652
1018.62	508
1027.91	1206
1037.2	1474
1046.47	510
1055.73	424
1064.98	458
1074.22	468
1083.44	460
1092.65	472
1101.86	468
1111.05	368
1120.22	352
1129.39	302
1138.54	336
1147.69	432
1156.82	988
1165.94	568
1175.05	648
1184.14	1246
1193.23	1168
1202.3	1214
1211.36	770
1220.41	508
1229.45	456
1238.48	424
1247.5	402
1256.5	398
1265.49	394
1274.48	376
1283.45	400
1292.41	426
1301.36	424
1310.29	460
1319.22	526
1328.13	596
1337.04	556
1345.93	438
1354.81	402
1363.68	414
1372.54	408
1381.38	394
1390.22	302
1399.05	294
1407.86	326
1416.66	312
1425.46	310
1434.24	338
1443.01	524
1451.77	628
1460.52	432
1469.25	354
1477.98	324
1486.7	312
1495.4	334
1504.1	304
1512.78	310
1521.45	312
1530.11	320
1538.76	310
1547.41	316
1556.03	328
1564.65	354
1573.26	406
1581.86	862
1590.45	638
1599.02	1236
1607.59	1346
1616.14	496
1624.69	414
1633.22	364
1641.75	358
1650.26	388
1658.76	328
1667.26	314
1675.74	330
1684.21	328
1692.67	324
1701.12	320
1709.56	302
1717.99	320
1726.41	328
1734.82	328
1743.22	296
1751.61	324
1759.99	324
1768.36	308
1776.71	314
1785.06	330
1793.4	324
1801.73	324
1810.04	334
1818.35	334
1826.65	324
1834.94	352
1843.21	340
1851.48	346
1859.74	334
1867.98	334
1876.22	350
1884.45	326
1892.67	330
1900.87	338
1909.07	336
1917.26	364
1925.43	354
1933.6	366
1941.76	348
1949.91	350
1958.05	322
1966.17	358
1974.29	352
1982.4	346
1990.5	360
1998.59	352
2006.67	354
2014.74	354
2022.8	358
2030.85	354
2038.89	372
2046.92	356
2054.94	348
2062.95	372
2070.96	378
2078.95	362
2086.93	376
2094.91	364
2102.87	368
2110.83	360
2118.77	386
2126.71	372
2134.63	344
2142.55	360
2150.46	390
2158.35	384
2166.24	358
2174.12	374
2181.99	386
2189.85	370
2197.7	378
2205.55	354
2213.38	390
2221.2	372
2229.02	360
2236.82	368
2244.62	362
2252.4	364
2260.18	342
2267.95	366
2275.71	356
2283.46	374
2291.2	364
2298.93	366
2306.65	374
2314.37	374
2322.07	368
2329.77	378
2337.45	362
2345.13	374
2352.8	362
2360.46	380
2368.11	368
2375.75	382
2383.38	370
2391.01	358
2398.62	388
2406.23	378
2413.82	372
2421.41	364
2428.99	368
2436.56	390
2444.12	384
2449.79	400