File: Jesse_Dataset_v2/Pure Raman/Polystyrene/633nm/ps-ppo-7jan25-1,0000-map3_Y06_X07.txt
182.393	1068
192.79	988
203.174	980
213.542	1064
223.897	1104
234.238	898
244.566	558
254.878	428
265.178	386
275.463	342
285.734	320
295.992	276
306.236	284
316.467	258
326.684	276
336.887	286
347.075	258
357.251	274
367.413	240
377.562	282
387.697	288
397.819	332
407.926	398
418.02	326
428.101	294
438.169	262
448.223	262
458.264	236
468.291	226
478.306	222
488.307	222
498.294	228
508.269	240
518.23	240
528.177	266
538.113	294
548.034	290
557.942	294
567.838	288
577.72	296
587.589	266
597.446	258
607.289	304
617.119	450
626.936	584
636.741	260
646.533	210
656.313	204
666.078	200
675.831	200
685.571	206
695.299	210
705.014	250
714.716	256
724.406	316
734.082	308
743.746	438
753.398	462
763.037	530
772.664	458
782.278	486
791.879	680
801.467	660
811.044	448
820.608	334
830.16	298
839.699	368
849.226	380
858.741	310
868.243	344
877.731	332
887.209	316
896.674	322
906.128	390
915.569	328
924.997	278
934.414	280
943.818	288
953.211	314
962.59	344
971.958	336
981.314	490
990.659	1218
999.99	4188
1009.31	1610
1018.62	514
1027.91	1222
1037.2	1482
1046.47	528
1055.73	460
1064.98	464
1074.22	480
1083.44	490
1092.65	462
1101.86	462
1111.05	408
1120.22	356
1129.39	318
1138.54	320
1147.69	470
1156.82	970
1165.94	556
1175.05	668
1184.14	1224
1193.23	1166
1202.3	1214
1211.36	744
1220.41	530
1229.45	454
1238.48	402
1247.5	396
1256.5	390
1265.49	376
1274.48	374
1283.45	392
1292.41	426
1301.36	448
1310.29	454
1319.22	504
1328.13	584
1337.04	516
1345.93	422
1354.81	398
1363.68	408
1372.54	412
1381.38	366
1390.22	308
1399.05	304
1407.86	310
1416.66	292
1425.46	290
1434.24	344
1443.01	548
1451.77	632
1460.52	412
1469.25	318
1477.98	288
1486.7	310
1495.4	338
1504.1	286
1512.78	300
1521.45	300
1530.11	308
1538.76	302
1547.41	308
1556.03	316
1564.65	334
1573.26	394
1581.86	830
1590.45	632
1599.02	1266
1607.59	1310
1616.14	510
1624.69	402
1633.22	350
1641.75	350
1650.26	366
1658.76	304
1667.26	320
1675.74	314
1684.21	334
1692.67	316
1701.12	304
1709.56	310
1717.99	286
1726.41	306
1734.82	306
1743.22	290
1751.61	296
1759.99	304
1768.36	280
1776.71	292
1785.06	296
1793.4	322
1801.73	322
1810.04	306
1818.35	304
1826.65	316
1834.94	304
1843.21	318
1851.48	298
1859.74	304
1867.98	328
1876.22	308
1884.45	330
1892.67	320
1900.87	304
1909.07	300
1917.26	342
1925.43	350
1933.6	340
1941.76	308
1949.91	308
1958.05	330
1966.17	318
1974.29	334
1982.4	332
1990.5	312
1998.59	334
2006.67	328
2014.74	320
2022.8	328
2030.85	348
2038.89	328
2046.92	314
2054.94	342
2062.95	316
2070.96	350
2078.95	336
2086.93	324
2094.91	330
2102.87	330
2110.83	328
2118.77	350
2126.71	332
2134.63	348
2142.55	348
2150.46	344
2158.35	338
2166.24	368
2174.12	352
2181.99	334
2189.85	354
2197.7	344
2205.55	330
2213.38	318
2221.2	354
2229.02	334
2236.82	328
2244.62	346
2252.4	346
2260.18	344
2267.95	330
2275.71	344
2283.46	340
2291.2	340
2298.93	346
2306.65	340
2314.37	354
2322.07	356
2329.77	360
2337.45	352
2345.13	364
2352.8	330
2360.46	366
2368.11	348
2375.75	362
2383.38	364
2391.01	354
2398.62	352
2406.23	370
2413.82	358
2421.41	350
2428.99	352
2436.56	352
2444.12	370
2449.79	370