File: Jesse_Dataset_v2/Pure Raman/Polystyrene/633nm/ps-ppo-7jan25-1,0000-map3_Y08_X01.txt
182.393	1070
192.79	966
203.174	956
213.542	1034
223.897	1056
234.238	866
244.566	534
254.878	416
265.178	352
275.463	360
285.734	310
295.992	266
306.236	260
316.467	248
326.684	264
336.887	260
347.075	266
357.251	246
367.413	252
377.562	272
387.697	292
397.819	330
407.926	400
418.02	320
428.101	258
438.169	246
448.223	252
458.264	226
468.291	230
478.306	214
488.307	212
498.294	228
508.269	238
518.23	224
528.177	244
538.113	286
548.034	298
557.942	278
567.838	258
577.72	302
587.589	232
597.446	248
607.289	288
617.119	448
626.936	558
636.741	258
646.533	198
656.313	198
666.078	204
675.831	198
685.571	208
695.299	216
705.014	242
714.716	230
724.406	298
734.082	306
743.746	400
753.398	438
763.037	492
772.664	440
782.278	476
791.879	664
801.467	640
811.044	418
820.608	314
830.16	272
839.699	362
849.226	342
858.741	316
868.243	294
877.731	286
887.209	268
896.674	304
906.128	362
915.569	328
924.997	270
934.414	264
943.818	266
953.211	274
962.59	298
971.958	358
981.314	448
990.659	1196
999.99	4202
1009.31	1572
1018.62	476
1027.91	1210
1037.2	1384
1046.47	484
1055.73	404
1064.98	420
1074.22	442
1083.44	428
1092.65	416
1101.86	424
1111.05	366
1120.22	300
1129.39	240
1138.54	290
1147.69	422
1156.82	982
1165.94	522
1175.05	606
1184.14	1186
1193.23	1150
1202.3	1132
1211.36	706
1220.41	468
1229.45	418
1238.48	386
1247.5	376
1256.5	354
1265.49	350
1274.48	346
1283.45	352
1292.41	366
1301.36	402
1310.29	418
1319.22	480
1328.13	518
1337.04	492
1345.93	398
1354.81	364
1363.68	376
1372.54	362
1381.38	356
1390.22	272
1399.05	270
1407.86	254
1416.66	258
1425.46	262
1434.24	328
1443.01	476
1451.77	600
1460.52	386
1469.25	286
1477.98	288
1486.7	254
1495.4	304
1504.1	262
1512.78	282
1521.45	272
1530.11	274
1538.76	262
1547.41	282
1556.03	282
1564.65	316
1573.26	360
1581.86	822
1590.45	612
1599.02	1226
1607.59	1332
1616.14	472
1624.69	344
1633.22	344
1641.75	332
1650.26	348
1658.76	302
1667.26	286
1675.74	290
1684.21	296
1692.67	300
1701.12	276
1709.56	294
1717.99	290
1726.41	296
1734.82	304
1743.22	284
1751.61	298
1759.99	282
1768.36	292
1776.71	300
1785.06	290
1793.4	294
1801.73	306
1810.04	310
1818.35	302
1826.65	302
1834.94	294
1843.21	300
1851.48	288
1859.74	296
1867.98	298
1876.22	284
1884.45	296
1892.67	312
1900.87	302
1909.07	320
1917.26	326
1925.43	298
1933.6	312
1941.76	310
1949.91	324
1958.05	322
1966.17	324
1974.29	308
1982.4	314
1990.5	314
1998.59	304
2006.67	322
2014.74	320
2022.8	316
2030.85	326
2038.89	306
2046.92	306
2054.94	330
2062.95	312
2070.96	324
2078.95	310
2086.93	320
2094.91	312
2102.87	334
2110.83	334
2118.77	318
2126.71	328
2134.63	326
2142.55	330
2150.46	328
2158.35	322
2166.24	322
2174.12	324
2181.99	344
2189.85	328
2197.7	318
2205.55	324
2213.38	322
2221.2	326
2229.02	338
2236.82	340
2244.62	318
2252.4	352
2260.18	332
2267.95	326
2275.71	322
2283.46	320
2291.2	342
2298.93	324
2306.65	342
2314.37	316
2322.07	340
2329.77	350
2337.45	348
2345.13	352
2352.8	350
2360.46	346
2368.11	332
2375.75	330
2383.38	340
2391.01	340
2398.62	330
2406.23	342
2413.82	348
2421.41	354
2428.99	342
2436.56	340
2444.12	376
2449.79	356