File: Jesse_Dataset_v2/Pure Raman/Polystyrene/633nm/ps-ppo-7jan25-1,0000-map3_Y08_X03.txt
182.393	1034
192.79	912
203.174	946
213.542	1032
223.897	1076
234.238	828
244.566	522
254.878	402
265.178	354
275.463	328
285.734	284
295.992	260
306.236	246
316.467	226
326.684	240
336.887	240
347.075	246
357.251	220
367.413	216
377.562	236
387.697	262
397.819	288
407.926	366
418.02	278
428.101	244
438.169	222
448.223	220
458.264	198
468.291	180
478.306	166
488.307	168
498.294	180
508.269	210
518.23	198
528.177	228
538.113	254
548.034	260
557.942	268
567.838	244
577.72	262
587.589	206
597.446	214
607.289	268
617.119	412
626.936	522
636.741	234
646.533	192
656.313	182
666.078	178
675.831	176
685.571	164
695.299	178
705.014	212
714.716	202
724.406	274
734.082	272
743.746	384
753.398	430
763.037	488
772.664	424
782.278	464
791.879	636
801.467	620
811.044	386
820.608	294
830.16	254
839.699	344
849.226	320
858.741	282
868.243	296
877.731	292
887.209	272
896.674	276
906.128	346
915.569	300
924.997	252
934.414	252
943.818	260
953.211	282
962.59	300
971.958	304
981.314	458
990.659	1160
999.99	4190
1009.31	1518
1018.62	450
1027.91	1158
1037.2	1398
1046.47	460
1055.73	384
1064.98	394
1074.22	430
1083.44	400
1092.65	418
1101.86	418
1111.05	336
1120.22	286
1129.39	260
1138.54	280
1147.69	392
1156.82	946
1165.94	484
1175.05	624
1184.14	1208
1193.23	1136
1202.3	1146
1211.36	712
1220.41	478
1229.45	418
1238.48	374
1247.5	346
1256.5	346
1265.49	348
1274.48	324
1283.45	350
1292.41	346
1301.36	406
1310.29	418
1319.22	454
1328.13	538
1337.04	478
1345.93	398
1354.81	348
1363.68	368
1372.54	384
1381.38	328
1390.22	274
1399.05	264
1407.86	254
1416.66	258
1425.46	270
1434.24	316
1443.01	478
1451.77	580
1460.52	362
1469.25	268
1477.98	268
1486.7	256
1495.4	280
1504.1	248
1512.78	264
1521.45	268
1530.11	282
1538.76	272
1547.41	260
1556.03	274
1564.65	304
1573.26	362
1581.86	802
1590.45	590
1599.02	1196
1607.59	1308
1616.14	476
1624.69	346
1633.22	304
1641.75	324
1650.26	344
1658.76	280
1667.26	282
1675.74	286
1684.21	276
1692.67	284
1701.12	282
1709.56	286
1717.99	268
1726.41	266
1734.82	272
1743.22	278
1751.61	282
1759.99	266
1768.36	284
1776.71	276
1785.06	282
1793.4	286
1801.73	292
1810.04	298
1818.35	284
1826.65	260
1834.94	284
1843.21	282
1851.48	286
1859.74	306
1867.98	278
1876.22	292
1884.45	304
1892.67	268
1900.87	300
1909.07	296
1917.26	304
1925.43	308
1933.6	300
1941.76	300
1949.91	296
1958.05	286
1966.17	310
1974.29	284
1982.4	292
1990.5	298
1998.59	308
2006.67	312
2014.74	304
2022.8	300
2030.85	306
2038.89	320
2046.92	298
2054.94	312
2062.95	314
2070.96	306
2078.95	314
2086.93	312
2094.91	314
2102.87	322
2110.83	306
2118.77	316
2126.71	310
2134.63	316
2142.55	308
2150.46	316
2158.35	330
2166.24	304
2174.12	302
2181.99	318
2189.85	316
2197.7	342
2205.55	324
2213.38	330
2221.2	330
2229.02	332
2236.82	328
2244.62	320
2252.4	332
2260.18	328
2267.95	350
2275.71	334
2283.46	314
2291.2	322
2298.93	338
2306.65	340
2314.37	338
2322.07	330
2329.77	336
2337.45	340
2345.13	322
2352.8	332
2360.46	334
2368.11	328
2375.75	320
2383.38	330
2391.01	326
2398.62	334
2406.23	332
2413.82	326
2421.41	340
2428.99	350
2436.56	326
2444.12	342
2449.79	370