File: Jesse_Dataset_v2/Pure Raman/Polystyrene/633nm/ps-ppo-7jan25-1,0000-map3_Y05_X03.txt
182.393	1052
192.79	954
203.174	962
213.542	1066
223.897	1038
234.238	830
244.566	532
254.878	394
265.178	362
275.463	350
285.734	288
295.992	242
306.236	240
316.467	256
326.684	248
336.887	244
347.075	230
357.251	224
367.413	230
377.562	240
387.697	280
397.819	282
407.926	366
418.02	292
428.101	246
438.169	240
448.223	222
458.264	190
468.291	186
478.306	188
488.307	164
498.294	186
508.269	202
518.23	198
528.177	210
538.113	270
548.034	252
557.942	262
567.838	242
577.72	270
587.589	230
597.446	240
607.289	270
617.119	422
626.936	552
636.741	234
646.533	192
656.313	182
666.078	178
675.831	182
685.571	178
695.299	198
705.014	236
714.716	240
724.406	318
734.082	296
743.746	400
753.398	438
763.037	510
772.664	416
782.278	446
791.879	622
801.467	620
811.044	440
820.608	306
830.16	286
839.699	366
849.226	356
858.741	316
868.243	320
877.731	302
887.209	306
896.674	296
906.128	376
915.569	310
924.997	274
934.414	264
943.818	270
953.211	280
962.59	312
971.958	332
981.314	452
990.659	1148
999.99	4254
1009.31	1622
1018.62	482
1027.91	1168
1037.2	1398
1046.47	492
1055.73	408
1064.98	436
1074.22	442
1083.44	426
1092.65	430
1101.86	446
1111.05	354
1120.22	326
1129.39	296
1138.54	308
1147.69	420
1156.82	952
1165.94	524
1175.05	638
1184.14	1212
1193.23	1126
1202.3	1158
1211.36	748
1220.41	492
1229.45	450
1238.48	358
1247.5	370
1256.5	362
1265.49	344
1274.48	352
1283.45	322
1292.41	376
1301.36	402
1310.29	416
1319.22	458
1328.13	518
1337.04	504
1345.93	390
1354.81	368
1363.68	380
1372.54	364
1381.38	346
1390.22	272
1399.05	262
1407.86	262
1416.66	264
1425.46	280
1434.24	316
1443.01	504
1451.77	594
1460.52	404
1469.25	276
1477.98	266
1486.7	288
1495.4	278
1504.1	244
1512.78	246
1521.45	266
1530.11	266
1538.76	278
1547.41	280
1556.03	284
1564.65	294
1573.26	372
1581.86	770
1590.45	578
1599.02	1216
1607.59	1310
1616.14	458
1624.69	356
1633.22	294
1641.75	330
1650.26	358
1658.76	304
1667.26	276
1675.74	272
1684.21	298
1692.67	294
1701.12	286
1709.56	282
1717.99	284
1726.41	288
1734.82	286
1743.22	270
1751.61	274
1759.99	270
1768.36	288
1776.71	270
1785.06	298
1793.4	284
1801.73	278
1810.04	290
1818.35	294
1826.65	290
1834.94	296
1843.21	288
1851.48	296
1859.74	278
1867.98	286
1876.22	298
1884.45	272
1892.67	270
1900.87	292
1909.07	304
1917.26	310
1925.43	310
1933.6	314
1941.76	300
1949.91	324
1958.05	312
1966.17	308
1974.29	294
1982.4	306
1990.5	304
1998.59	310
2006.67	318
2014.74	318
2022.8	312
2030.85	300
2038.89	296
2046.92	316
2054.94	322
2062.95	328
2070.96	302
2078.95	318
2086.93	330
2094.91	322
2102.87	324
2110.83	322
2118.77	340
2126.71	312
2134.63	338
2142.55	326
2150.46	338
2158.35	328
2166.24	348
2174.12	332
2181.99	322
2189.85	344
2197.7	340
2205.55	342
2213.38	320
2221.2	322
2229.02	348
2236.82	336
2244.62	342
2252.4	340
2260.18	354
2267.95	356
2275.71	326
2283.46	346
2291.2	350
2298.93	340
2306.65	350
2314.37	332
2322.07	334
2329.77	350
2337.45	358
2345.13	356
2352.8	354
2360.46	352
2368.11	352
2375.75	348
2383.38	348
2391.01	334
2398.62	356
2406.23	344
2413.82	326
2421.41	354
2428.99	338
2436.56	372
2444.12	376
2449.79	380