File: Jesse_Dataset_v2/Pure Raman/Polystyrene/633nm/ps-ppo-7jan25-1,0000-map3_Y03_X01.txt
182.393	1032
192.79	940
203.174	938
213.542	1046
223.897	1044
234.238	820
244.566	510
254.878	410
265.178	332
275.463	318
285.734	282
295.992	240
306.236	242
316.467	224
326.684	232
336.887	242
347.075	228
357.251	222
367.413	212
377.562	234
387.697	258
397.819	294
407.926	334
418.02	278
428.101	254
438.169	210
448.223	196
458.264	184
468.291	172
478.306	180
488.307	158
498.294	180
508.269	184
518.23	198
528.177	218
538.113	254
548.034	240
557.942	236
567.838	248
577.72	234
587.589	214
597.446	188
607.289	256
617.119	388
626.936	528
636.741	216
646.533	176
656.313	170
666.078	156
675.831	162
685.571	170
695.299	166
705.014	190
714.716	196
724.406	278
734.082	270
743.746	366
753.398	400
763.037	464
772.664	396
782.278	448
791.879	632
801.467	598
811.044	372
820.608	294
830.16	256
839.699	326
849.226	328
858.741	286
868.243	308
877.731	282
887.209	274
896.674	282
906.128	342
915.569	280
924.997	248
934.414	240
943.818	248
953.211	246
962.59	282
971.958	306
981.314	432
990.659	1172
999.99	4172
1009.31	1546
1018.62	426
1027.91	1166
1037.2	1402
1046.47	486
1055.73	378
1064.98	388
1074.22	418
1083.44	390
1092.65	416
1101.86	410
1111.05	342
1120.22	298
1129.39	258
1138.54	302
1147.69	392
1156.82	972
1165.94	506
1175.05	614
1184.14	1212
1193.23	1106
1202.3	1152
1211.36	720
1220.41	468
1229.45	402
1238.48	378
1247.5	356
1256.5	338
1265.49	324
1274.48	354
1283.45	348
1292.41	358
1301.36	408
1310.29	404
1319.22	438
1328.13	540
1337.04	470
1345.93	392
1354.81	372
1363.68	356
1372.54	374
1381.38	334
1390.22	276
1399.05	246
1407.86	274
1416.66	264
1425.46	266
1434.24	326
1443.01	482
1451.77	582
1460.52	380
1469.25	286
1477.98	284
1486.7	260
1495.4	284
1504.1	252
1512.78	242
1521.45	274
1530.11	268
1538.76	278
1547.41	268
1556.03	276
1564.65	310
1573.26	368
1581.86	802
1590.45	584
1599.02	1252
1607.59	1272
1616.14	454
1624.69	354
1633.22	302
1641.75	324
1650.26	344
1658.76	290
1667.26	276
1675.74	290
1684.21	288
1692.67	300
1701.12	266
1709.56	290
1717.99	286
1726.41	276
1734.82	270
1743.22	282
1751.61	268
1759.99	276
1768.36	274
1776.71	284
1785.06	292
1793.4	282
1801.73	282
1810.04	294
1818.35	280
1826.65	282
1834.94	284
1843.21	282
1851.48	272
1859.74	292
1867.98	264
1876.22	282
1884.45	294
1892.67	278
1900.87	288
1909.07	316
1917.26	304
1925.43	302
1933.6	290
1941.76	306
1949.91	292
1958.05	300
1966.17	280
1974.29	286
1982.4	308
1990.5	312
1998.59	302
2006.67	314
2014.74	304
2022.8	306
2030.85	320
2038.89	322
2046.92	300
2054.94	314
2062.95	296
2070.96	322
2078.95	324
2086.93	300
2094.91	314
2102.87	308
2110.83	312
2118.77	314
2126.71	324
2134.63	310
2142.55	308
2150.46	326
2158.35	340
2166.24	320
2174.12	326
2181.99	322
2189.85	312
2197.7	324
2205.55	324
2213.38	326
2221.2	350
2229.02	322
2236.82	340
2244.62	328
2252.4	320
2260.18	334
2267.95	324
2275.71	330
2283.46	328
2291.2	320
2298.93	322
2306.65	332
2314.37	360
2322.07	326
2329.77	326
2337.45	340
2345.13	354
2352.8	344
2360.46	334
2368.11	336
2375.75	344
2383.38	358
2391.01	362
2398.62	348
2406.23	352
2413.82	348
2421.41	346
2428.99	360
2436.56	350
2444.12	342
2449.79	362