File: Jesse_Dataset_v2/Pure Raman/Polystyrene/633nm/ps-ppo-7jan25-1,0000-map3_Y07_X04.txt
182.393	1120
192.79	998
203.174	1008
213.542	1118
223.897	1136
234.238	926
244.566	584
254.878	470
265.178	410
275.463	408
285.734	384
295.992	340
306.236	310
316.467	330
326.684	338
336.887	318
347.075	308
357.251	306
367.413	290
377.562	308
387.697	350
397.819	350
407.926	414
418.02	362
428.101	294
438.169	298
448.223	278
458.264	256
468.291	230
478.306	234
488.307	228
498.294	248
508.269	242
518.23	224
528.177	262
538.113	304
548.034	314
557.942	292
567.838	306
577.72	286
587.589	256
597.446	248
607.289	302
617.119	478
626.936	576
636.741	274
646.533	228
656.313	208
666.078	208
675.831	214
685.571	210
695.299	220
705.014	252
714.716	254
724.406	326
734.082	296
743.746	410
753.398	442
763.037	518
772.664	452
782.278	454
791.879	696
801.467	648
811.044	442
820.608	324
830.16	288
839.699	370
849.226	368
858.741	312
868.243	328
877.731	298
887.209	296
896.674	310
906.128	372
915.569	334
924.997	286
934.414	280
943.818	304
953.211	296
962.59	336
971.958	342
981.314	494
990.659	1160
999.99	4244
1009.31	1570
1018.62	504
1027.91	1222
1037.2	1460
1046.47	526
1055.73	402
1064.98	464
1074.22	486
1083.44	454
1092.65	470
1101.86	462
1111.05	380
1120.22	350
1129.39	314
1138.54	320
1147.69	448
1156.82	996
1165.94	558
1175.05	668
1184.14	1262
1193.23	1170
1202.3	1220
1211.36	798
1220.41	528
1229.45	500
1238.48	438
1247.5	420
1256.5	420
1265.49	398
1274.48	390
1283.45	400
1292.41	422
1301.36	472
1310.29	478
1319.22	520
1328.13	570
1337.04	524
1345.93	460
1354.81	416
1363.68	408
1372.54	444
1381.38	394
1390.22	338
1399.05	338
1407.86	326
1416.66	326
1425.46	318
1434.24	370
1443.01	530
1451.77	662
1460.52	448
1469.25	356
1477.98	326
1486.7	344
1495.4	344
1504.1	312
1512.78	312
1521.45	324
1530.11	314
1538.76	308
1547.41	308
1556.03	330
1564.65	352
1573.26	430
1581.86	798
1590.45	648
1599.02	1280
1607.59	1366
1616.14	514
1624.69	406
1633.22	378
1641.75	376
1650.26	396
1658.76	326
1667.26	346
1675.74	332
1684.21	346
1692.67	326
1701.12	320
1709.56	310
1717.99	308
1726.41	332
1734.82	300
1743.22	302
1751.61	312
1759.99	306
1768.36	310
1776.71	306
1785.06	290
1793.4	312
1801.73	306
1810.04	316
1818.35	322
1826.65	324
1834.94	338
1843.21	332
1851.48	322
1859.74	320
1867.98	326
1876.22	292
1884.45	318
1892.67	320
1900.87	322
1909.07	312
1917.26	344
1925.43	336
1933.6	322
1941.76	332
1949.91	324
1958.05	316
1966.17	334
1974.29	310
1982.4	322
1990.5	320
1998.59	312
2006.67	322
2014.74	320
2022.8	326
2030.85	318
2038.89	328
2046.92	318
2054.94	322
2062.95	322
2070.96	312
2078.95	318
2086.93	330
2094.91	334
2102.87	334
2110.83	332
2118.77	342
2126.71	332
2134.63	338
2142.55	326
2150.46	326
2158.35	314
2166.24	324
2174.12	328
2181.99	342
2189.85	354
2197.7	332
2205.55	326
2213.38	312
2221.2	360
2229.02	348
2236.82	322
2244.62	346
2252.4	348
2260.18	356
2267.95	354
2275.71	344
2283.46	346
2291.2	348
2298.93	364
2306.65	348
2314.37	368
2322.07	360
2329.77	332
2337.45	366
2345.13	360
2352.8	326
2360.46	356
2368.11	356
2375.75	356
2383.38	354
2391.01	354
2398.62	346
2406.23	344
2413.82	362
2421.41	374
2428.99	354
2436.56	360
2444.12	348
2449.79	382