File: Jesse_Dataset_v2/Pure Raman/Polystyrene/633nm/ps-ppo-7jan25-1,0000-map3_Y08_X02.txt
182.393	1028
192.79	938
203.174	938
213.542	1048
223.897	1052
234.238	826
244.566	542
254.878	388
265.178	348
275.463	322
285.734	306
295.992	244
306.236	242
316.467	248
326.684	244
336.887	236
347.075	246
357.251	226
367.413	218
377.562	238
387.697	252
397.819	308
407.926	380
418.02	294
428.101	234
438.169	232
448.223	206
458.264	184
468.291	190
478.306	192
488.307	184
498.294	192
508.269	222
518.23	208
528.177	216
538.113	270
548.034	262
557.942	270
567.838	268
577.72	264
587.589	234
597.446	222
607.289	278
617.119	456
626.936	552
636.741	242
646.533	208
656.313	186
666.078	180
675.831	174
685.571	192
695.299	212
705.014	226
714.716	226
724.406	286
734.082	300
743.746	396
753.398	454
763.037	476
772.664	448
782.278	470
791.879	640
801.467	672
811.044	422
820.608	326
830.16	282
839.699	366
849.226	336
858.741	300
868.243	320
877.731	312
887.209	298
896.674	318
906.128	380
915.569	304
924.997	282
934.414	264
943.818	284
953.211	292
962.59	314
971.958	338
981.314	480
990.659	1160
999.99	4232
1009.31	1560
1018.62	450
1027.91	1186
1037.2	1426
1046.47	502
1055.73	408
1064.98	438
1074.22	460
1083.44	432
1092.65	426
1101.86	436
1111.05	350
1120.22	332
1129.39	300
1138.54	302
1147.69	408
1156.82	936
1165.94	526
1175.05	628
1184.14	1178
1193.23	1154
1202.3	1110
1211.36	738
1220.41	502
1229.45	442
1238.48	372
1247.5	346
1256.5	330
1265.49	334
1274.48	312
1283.45	334
1292.41	378
1301.36	422
1310.29	442
1319.22	460
1328.13	520
1337.04	486
1345.93	398
1354.81	374
1363.68	378
1372.54	366
1381.38	368
1390.22	268
1399.05	258
1407.86	272
1416.66	266
1425.46	274
1434.24	314
1443.01	478
1451.77	554
1460.52	372
1469.25	280
1477.98	270
1486.7	278
1495.4	284
1504.1	262
1512.78	264
1521.45	252
1530.11	232
1538.76	276
1547.41	264
1556.03	292
1564.65	302
1573.26	374
1581.86	774
1590.45	600
1599.02	1228
1607.59	1326
1616.14	438
1624.69	370
1633.22	306
1641.75	310
1650.26	342
1658.76	298
1667.26	274
1675.74	262
1684.21	282
1692.67	288
1701.12	280
1709.56	282
1717.99	258
1726.41	274
1734.82	270
1743.22	262
1751.61	266
1759.99	266
1768.36	256
1776.71	280
1785.06	282
1793.4	276
1801.73	282
1810.04	282
1818.35	288
1826.65	290
1834.94	296
1843.21	284
1851.48	286
1859.74	300
1867.98	302
1876.22	282
1884.45	292
1892.67	292
1900.87	316
1909.07	306
1917.26	294
1925.43	326
1933.6	302
1941.76	284
1949.91	304
1958.05	324
1966.17	308
1974.29	304
1982.4	288
1990.5	310
1998.59	302
2006.67	320
2014.74	278
2022.8	316
2030.85	310
2038.89	314
2046.92	328
2054.94	314
2062.95	314
2070.96	306
2078.95	314
2086.93	308
2094.91	312
2102.87	314
2110.83	320
2118.77	324
2126.71	334
2134.63	326
2142.55	300
2150.46	310
2158.35	326
2166.24	336
2174.12	326
2181.99	332
2189.85	318
2197.7	334
2205.55	322
2213.38	326
2221.2	338
2229.02	334
2236.82	336
2244.62	344
2252.4	320
2260.18	340
2267.95	330
2275.71	338
2283.46	332
2291.2	320
2298.93	332
2306.65	328
2314.37	356
2322.07	332
2329.77	328
2337.45	332
2345.13	332
2352.8	364
2360.46	348
2368.11	332
2375.75	332
2383.38	342
2391.01	326
2398.62	346
2406.23	348
2413.82	322
2421.41	334
2428.99	330
2436.56	364
2444.12	348
2449.79	362