File: Jesse_Dataset_v2/Pure Raman/Polystyrene/633nm/ps-ppo-7jan25-1,0000-map3_Y05_X01.txt
182.393	998
192.79	942
203.174	946
213.542	1006
223.897	1044
234.238	774
244.566	496
254.878	370
265.178	334
275.463	296
285.734	278
295.992	238
306.236	222
316.467	226
326.684	220
336.887	222
347.075	210
357.251	198
367.413	220
377.562	216
387.697	246
397.819	280
407.926	326
418.02	268
428.101	220
438.169	206
448.223	198
458.264	178
468.291	172
478.306	158
488.307	140
498.294	170
508.269	164
518.23	176
528.177	194
538.113	228
548.034	232
557.942	242
567.838	232
577.72	226
587.589	200
597.446	194
607.289	242
617.119	398
626.936	518
636.741	220
646.533	170
656.313	164
666.078	158
675.831	160
685.571	156
695.299	170
705.014	202
714.716	200
724.406	276
734.082	250
743.746	362
753.398	376
763.037	470
772.664	408
782.278	432
791.879	644
801.467	610
811.044	364
820.608	270
830.16	246
839.699	340
849.226	328
858.741	286
868.243	282
877.731	282
887.209	228
896.674	270
906.128	328
915.569	280
924.997	244
934.414	258
943.818	246
953.211	260
962.59	300
971.958	324
981.314	446
990.659	1130
999.99	4216
1009.31	1556
1018.62	450
1027.91	1172
1037.2	1396
1046.47	462
1055.73	358
1064.98	396
1074.22	448
1083.44	430
1092.65	392
1101.86	394
1111.05	332
1120.22	294
1129.39	266
1138.54	276
1147.69	410
1156.82	954
1165.94	490
1175.05	608
1184.14	1180
1193.23	1102
1202.3	1172
1211.36	740
1220.41	470
1229.45	422
1238.48	344
1247.5	340
1256.5	340
1265.49	326
1274.48	322
1283.45	334
1292.41	370
1301.36	402
1310.29	416
1319.22	462
1328.13	524
1337.04	478
1345.93	404
1354.81	344
1363.68	354
1372.54	378
1381.38	334
1390.22	274
1399.05	260
1407.86	266
1416.66	230
1425.46	258
1434.24	320
1443.01	478
1451.77	608
1460.52	342
1469.25	266
1477.98	274
1486.7	258
1495.4	280
1504.1	250
1512.78	242
1521.45	264
1530.11	262
1538.76	262
1547.41	268
1556.03	262
1564.65	302
1573.26	368
1581.86	784
1590.45	590
1599.02	1202
1607.59	1240
1616.14	496
1624.69	340
1633.22	314
1641.75	322
1650.26	344
1658.76	284
1667.26	288
1675.74	278
1684.21	292
1692.67	276
1701.12	266
1709.56	278
1717.99	268
1726.41	274
1734.82	260
1743.22	270
1751.61	282
1759.99	266
1768.36	276
1776.71	290
1785.06	280
1793.4	272
1801.73	300
1810.04	294
1818.35	286
1826.65	276
1834.94	284
1843.21	286
1851.48	268
1859.74	280
1867.98	262
1876.22	266
1884.45	294
1892.67	292
1900.87	306
1909.07	292
1917.26	292
1925.43	282
1933.6	306
1941.76	288
1949.91	302
1958.05	292
1966.17	300
1974.29	298
1982.4	296
1990.5	298
1998.59	314
2006.67	316
2014.74	292
2022.8	298
2030.85	300
2038.89	310
2046.92	304
2054.94	306
2062.95	320
2070.96	324
2078.95	316
2086.93	312
2094.91	324
2102.87	306
2110.83	322
2118.77	308
2126.71	330
2134.63	310
2142.55	320
2150.46	324
2158.35	304
2166.24	332
2174.12	334
2181.99	318
2189.85	322
2197.7	318
2205.55	330
2213.38	328
2221.2	338
2229.02	316
2236.82	316
2244.62	318
2252.4	332
2260.18	340
2267.95	326
2275.71	332
2283.46	322
2291.2	322
2298.93	334
2306.65	326
2314.37	344
2322.07	342
2329.77	320
2337.45	330
2345.13	334
2352.8	340
2360.46	336
2368.11	336
2375.75	342
2383.38	322
2391.01	352
2398.62	348
2406.23	340
2413.82	340
2421.41	336
2428.99	340
2436.56	336
2444.12	356
2449.79	362