File: Jesse_Dataset_v2/Pure Raman/Polystyrene/633nm/ps-ppo-7jan25-1,0000-map3_Y04_X09.txt
182.393	1030
192.79	942
203.174	932
213.542	1030
223.897	1086
234.238	834
244.566	532
254.878	380
265.178	340
275.463	328
285.734	298
295.992	250
306.236	236
316.467	254
326.684	250
336.887	240
347.075	230
357.251	222
367.413	228
377.562	238
387.697	258
397.819	302
407.926	342
418.02	298
428.101	246
438.169	228
448.223	218
458.264	206
468.291	190
478.306	184
488.307	176
498.294	174
508.269	204
518.23	196
528.177	214
538.113	264
548.034	258
557.942	266
567.838	250
577.72	266
587.589	214
597.446	212
607.289	274
617.119	420
626.936	532
636.741	246
646.533	182
656.313	192
666.078	164
675.831	170
685.571	168
695.299	184
705.014	210
714.716	206
724.406	296
734.082	300
743.746	374
753.398	420
763.037	484
772.664	414
782.278	458
791.879	638
801.467	634
811.044	408
820.608	316
830.16	270
839.699	342
849.226	346
858.741	294
868.243	312
877.731	296
887.209	286
896.674	296
906.128	362
915.569	308
924.997	248
934.414	274
943.818	282
953.211	272
962.59	324
971.958	338
981.314	452
990.659	1192
999.99	4272
1009.31	1582
1018.62	478
1027.91	1176
1037.2	1470
1046.47	504
1055.73	426
1064.98	430
1074.22	466
1083.44	456
1092.65	416
1101.86	456
1111.05	368
1120.22	320
1129.39	294
1138.54	320
1147.69	432
1156.82	1006
1165.94	524
1175.05	648
1184.14	1214
1193.23	1106
1202.3	1184
1211.36	708
1220.41	506
1229.45	452
1238.48	392
1247.5	372
1256.5	366
1265.49	374
1274.48	366
1283.45	372
1292.41	368
1301.36	416
1310.29	414
1319.22	464
1328.13	566
1337.04	512
1345.93	418
1354.81	388
1363.68	384
1372.54	408
1381.38	364
1390.22	300
1399.05	310
1407.86	280
1416.66	268
1425.46	270
1434.24	330
1443.01	488
1451.77	600
1460.52	428
1469.25	280
1477.98	302
1486.7	312
1495.4	334
1504.1	296
1512.78	284
1521.45	284
1530.11	282
1538.76	282
1547.41	308
1556.03	328
1564.65	326
1573.26	398
1581.86	850
1590.45	648
1599.02	1232
1607.59	1344
1616.14	490
1624.69	376
1633.22	338
1641.75	360
1650.26	352
1658.76	314
1667.26	328
1675.74	308
1684.21	302
1692.67	306
1701.12	294
1709.56	292
1717.99	318
1726.41	292
1734.82	290
1743.22	304
1751.61	304
1759.99	296
1768.36	294
1776.71	306
1785.06	306
1793.4	300
1801.73	304
1810.04	294
1818.35	310
1826.65	304
1834.94	288
1843.21	312
1851.48	312
1859.74	292
1867.98	312
1876.22	310
1884.45	292
1892.67	290
1900.87	322
1909.07	320
1917.26	308
1925.43	312
1933.6	346
1941.76	338
1949.91	336
1958.05	322
1966.17	328
1974.29	318
1982.4	330
1990.5	294
1998.59	300
2006.67	324
2014.74	320
2022.8	306
2030.85	328
2038.89	326
2046.92	328
2054.94	310
2062.95	340
2070.96	310
2078.95	332
2086.93	324
2094.91	322
2102.87	314
2110.83	342
2118.77	346
2126.71	340
2134.63	346
2142.55	326
2150.46	340
2158.35	350
2166.24	340
2174.12	380
2181.99	334
2189.85	340
2197.7	346
2205.55	336
2213.38	374
2221.2	342
2229.02	344
2236.82	358
2244.62	360
2252.4	348
2260.18	352
2267.95	346
2275.71	352
2283.46	358
2291.2	360
2298.93	352
2306.65	364
2314.37	334
2322.07	356
2329.77	346
2337.45	336
2345.13	350
2352.8	374
2360.46	362
2368.11	364
2375.75	370
2383.38	356
2391.01	356
2398.62	342
2406.23	348
2413.82	358
2421.41	370
2428.99	372
2436.56	358
2444.12	366
2449.79	352