File: Jesse_Dataset_v2/Pure Raman/Polystyrene/633nm/ps-ppo-7jan25-1,0000-map3_Y10_X08.txt
182.393	1088
192.79	1000
203.174	990
213.542	1072
223.897	1024
234.238	842
244.566	552
254.878	416
265.178	378
275.463	354
285.734	314
295.992	280
306.236	248
316.467	270
326.684	278
336.887	250
347.075	226
357.251	230
367.413	232
377.562	246
387.697	284
397.819	308
407.926	354
418.02	292
428.101	260
438.169	232
448.223	242
458.264	222
468.291	204
478.306	208
488.307	190
498.294	200
508.269	208
518.23	214
528.177	224
538.113	266
548.034	270
557.942	280
567.838	272
577.72	232
587.589	214
597.446	222
607.289	296
617.119	436
626.936	544
636.741	244
646.533	202
656.313	184
666.078	174
675.831	182
685.571	196
695.299	190
705.014	226
714.716	218
724.406	328
734.082	302
743.746	396
753.398	458
763.037	482
772.664	438
782.278	466
791.879	658
801.467	648
811.044	408
820.608	314
830.16	274
839.699	372
849.226	364
858.741	312
868.243	318
877.731	332
887.209	302
896.674	304
906.128	366
915.569	304
924.997	268
934.414	272
943.818	288
953.211	284
962.59	302
971.958	358
981.314	492
990.659	1204
999.99	4344
1009.31	1532
1018.62	504
1027.91	1170
1037.2	1446
1046.47	478
1055.73	428
1064.98	442
1074.22	490
1083.44	448
1092.65	432
1101.86	428
1111.05	364
1120.22	324
1129.39	282
1138.54	322
1147.69	452
1156.82	1014
1165.94	560
1175.05	650
1184.14	1186
1193.23	1140
1202.3	1152
1211.36	738
1220.41	494
1229.45	458
1238.48	394
1247.5	368
1256.5	370
1265.49	390
1274.48	360
1283.45	352
1292.41	380
1301.36	434
1310.29	444
1319.22	478
1328.13	562
1337.04	518
1345.93	430
1354.81	414
1363.68	394
1372.54	388
1381.38	374
1390.22	314
1399.05	294
1407.86	280
1416.66	272
1425.46	284
1434.24	336
1443.01	502
1451.77	622
1460.52	386
1469.25	304
1477.98	302
1486.7	286
1495.4	320
1504.1	306
1512.78	290
1521.45	290
1530.11	298
1538.76	282
1547.41	300
1556.03	284
1564.65	332
1573.26	382
1581.86	836
1590.45	644
1599.02	1250
1607.59	1334
1616.14	484
1624.69	386
1633.22	330
1641.75	348
1650.26	366
1658.76	322
1667.26	316
1675.74	304
1684.21	316
1692.67	314
1701.12	308
1709.56	312
1717.99	292
1726.41	302
1734.82	298
1743.22	298
1751.61	300
1759.99	294
1768.36	288
1776.71	302
1785.06	308
1793.4	326
1801.73	282
1810.04	300
1818.35	322
1826.65	310
1834.94	310
1843.21	310
1851.48	286
1859.74	316
1867.98	314
1876.22	308
1884.45	322
1892.67	296
1900.87	328
1909.07	326
1917.26	314
1925.43	322
1933.6	318
1941.76	326
1949.91	324
1958.05	328
1966.17	334
1974.29	322
1982.4	324
1990.5	314
1998.59	312
2006.67	336
2014.74	320
2022.8	302
2030.85	332
2038.89	314
2046.92	312
2054.94	332
2062.95	322
2070.96	360
2078.95	346
2086.93	330
2094.91	350
2102.87	340
2110.83	348
2118.77	334
2126.71	338
2134.63	350
2142.55	322
2150.46	352
2158.35	328
2166.24	326
2174.12	348
2181.99	360
2189.85	338
2197.7	360
2205.55	348
2213.38	352
2221.2	336
2229.02	342
2236.82	352
2244.62	352
2252.4	354
2260.18	356
2267.95	348
2275.71	330
2283.46	330
2291.2	346
2298.93	354
2306.65	326
2314.37	366
2322.07	366
2329.77	342
2337.45	342
2345.13	360
2352.8	354
2360.46	350
2368.11	378
2375.75	350
2383.38	368
2391.01	340
2398.62	384
2406.23	340
2413.82	358
2421.41	384
2428.99	368
2436.56	342
2444.12	380
2449.79	356