File: Jesse_Dataset_v2/Pure Raman/Polystyrene/633nm/ps-ppo-7jan25-1,0000-map3_Y10_X07.txt
182.393	1088
192.79	998
203.174	1018
213.542	1104
223.897	1142
234.238	888
244.566	586
254.878	442
265.178	400
275.463	394
285.734	336
295.992	340
306.236	322
316.467	316
326.684	304
336.887	296
347.075	312
357.251	302
367.413	308
377.562	304
387.697	344
397.819	356
407.926	428
418.02	362
428.101	330
438.169	298
448.223	286
458.264	252
468.291	254
478.306	236
488.307	254
498.294	232
508.269	250
518.23	244
528.177	256
538.113	298
548.034	332
557.942	282
567.838	290
577.72	292
587.589	262
597.446	264
607.289	310
617.119	488
626.936	560
636.741	268
646.533	226
656.313	218
666.078	204
675.831	194
685.571	206
695.299	204
705.014	234
714.716	252
724.406	318
734.082	290
743.746	416
753.398	442
763.037	518
772.664	434
782.278	482
791.879	682
801.467	642
811.044	406
820.608	310
830.16	274
839.699	354
849.226	364
858.741	322
868.243	316
877.731	306
887.209	300
896.674	324
906.128	356
915.569	314
924.997	268
934.414	268
943.818	288
953.211	292
962.59	290
971.958	344
981.314	458
990.659	1176
999.99	4304
1009.31	1524
1018.62	468
1027.91	1186
1037.2	1412
1046.47	482
1055.73	392
1064.98	398
1074.22	460
1083.44	446
1092.65	452
1101.86	442
1111.05	368
1120.22	336
1129.39	268
1138.54	310
1147.69	404
1156.82	966
1165.94	516
1175.05	612
1184.14	1214
1193.23	1138
1202.3	1166
1211.36	722
1220.41	498
1229.45	432
1238.48	382
1247.5	376
1256.5	344
1265.49	346
1274.48	366
1283.45	358
1292.41	380
1301.36	398
1310.29	438
1319.22	490
1328.13	528
1337.04	508
1345.93	414
1354.81	378
1363.68	382
1372.54	388
1381.38	358
1390.22	300
1399.05	284
1407.86	290
1416.66	272
1425.46	284
1434.24	354
1443.01	514
1451.77	602
1460.52	384
1469.25	318
1477.98	296
1486.7	306
1495.4	328
1504.1	294
1512.78	298
1521.45	306
1530.11	294
1538.76	308
1547.41	298
1556.03	312
1564.65	318
1573.26	374
1581.86	852
1590.45	632
1599.02	1234
1607.59	1276
1616.14	502
1624.69	404
1633.22	366
1641.75	338
1650.26	386
1658.76	340
1667.26	312
1675.74	328
1684.21	334
1692.67	328
1701.12	312
1709.56	316
1717.99	316
1726.41	304
1734.82	312
1743.22	298
1751.61	294
1759.99	330
1768.36	318
1776.71	316
1785.06	322
1793.4	322
1801.73	318
1810.04	338
1818.35	306
1826.65	322
1834.94	340
1843.21	326
1851.48	324
1859.74	324
1867.98	302
1876.22	304
1884.45	334
1892.67	326
1900.87	332
1909.07	324
1917.26	342
1925.43	326
1933.6	338
1941.76	342
1949.91	318
1958.05	352
1966.17	360
1974.29	308
1982.4	338
1990.5	330
1998.59	324
2006.67	336
2014.74	328
2022.8	350
2030.85	328
2038.89	330
2046.92	354
2054.94	340
2062.95	342
2070.96	342
2078.95	344
2086.93	322
2094.91	344
2102.87	342
2110.83	336
2118.77	344
2126.71	328
2134.63	342
2142.55	336
2150.46	338
2158.35	344
2166.24	342
2174.12	336
2181.99	352
2189.85	332
2197.7	350
2205.55	354
2213.38	342
2221.2	334
2229.02	336
2236.82	344
2244.62	338
2252.4	362
2260.18	336
2267.95	350
2275.71	344
2283.46	330
2291.2	352
2298.93	344
2306.65	344
2314.37	364
2322.07	342
2329.77	366
2337.45	350
2345.13	352
2352.8	332
2360.46	352
2368.11	360
2375.75	332
2383.38	332
2391.01	372
2398.62	342
2406.23	338
2413.82	344
2421.41	352
2428.99	368
2436.56	366
2444.12	360
2449.79	360