File: Jesse_Dataset_v2/Pure Raman/Polystyrene/633nm/ps-ppo-7jan25-1,0000-map3_Y04_X10.txt
182.393	1026
192.79	932
203.174	920
213.542	1044
223.897	1086
234.238	818
244.566	512
254.878	394
265.178	360
275.463	310
285.734	278
295.992	240
306.236	238
316.467	244
326.684	240
336.887	234
347.075	238
357.251	216
367.413	220
377.562	236
387.697	258
397.819	274
407.926	350
418.02	292
428.101	250
438.169	234
448.223	210
458.264	196
468.291	182
478.306	170
488.307	192
498.294	180
508.269	212
518.23	186
528.177	218
538.113	246
548.034	242
557.942	246
567.838	244
577.72	272
587.589	202
597.446	224
607.289	260
617.119	426
626.936	548
636.741	240
646.533	184
656.313	170
666.078	178
675.831	170
685.571	168
695.299	162
705.014	224
714.716	220
724.406	272
734.082	286
743.746	394
753.398	440
763.037	492
772.664	426
782.278	452
791.879	636
801.467	630
811.044	402
820.608	284
830.16	262
839.699	348
849.226	354
858.741	296
868.243	296
877.731	284
887.209	260
896.674	284
906.128	376
915.569	306
924.997	252
934.414	232
943.818	260
953.211	262
962.59	308
971.958	332
981.314	436
990.659	1158
999.99	4172
1009.31	1542
1018.62	452
1027.91	1216
1037.2	1422
1046.47	480
1055.73	382
1064.98	416
1074.22	442
1083.44	436
1092.65	406
1101.86	418
1111.05	352
1120.22	314
1129.39	282
1138.54	282
1147.69	398
1156.82	950
1165.94	516
1175.05	638
1184.14	1172
1193.23	1096
1202.3	1152
1211.36	724
1220.41	454
1229.45	422
1238.48	370
1247.5	342
1256.5	334
1265.49	342
1274.48	336
1283.45	356
1292.41	372
1301.36	396
1310.29	432
1319.22	456
1328.13	530
1337.04	494
1345.93	396
1354.81	372
1363.68	398
1372.54	382
1381.38	348
1390.22	280
1399.05	274
1407.86	270
1416.66	258
1425.46	264
1434.24	330
1443.01	498
1451.77	582
1460.52	380
1469.25	288
1477.98	272
1486.7	258
1495.4	294
1504.1	270
1512.78	266
1521.45	262
1530.11	274
1538.76	260
1547.41	270
1556.03	282
1564.65	304
1573.26	380
1581.86	816
1590.45	610
1599.02	1228
1607.59	1318
1616.14	466
1624.69	366
1633.22	322
1641.75	332
1650.26	346
1658.76	284
1667.26	284
1675.74	292
1684.21	298
1692.67	284
1701.12	282
1709.56	278
1717.99	270
1726.41	282
1734.82	268
1743.22	276
1751.61	268
1759.99	294
1768.36	288
1776.71	272
1785.06	290
1793.4	286
1801.73	286
1810.04	296
1818.35	290
1826.65	298
1834.94	282
1843.21	280
1851.48	290
1859.74	284
1867.98	288
1876.22	300
1884.45	292
1892.67	284
1900.87	300
1909.07	314
1917.26	304
1925.43	298
1933.6	314
1941.76	318
1949.91	300
1958.05	314
1966.17	294
1974.29	306
1982.4	302
1990.5	314
1998.59	320
2006.67	304
2014.74	320
2022.8	316
2030.85	308
2038.89	326
2046.92	306
2054.94	310
2062.95	336
2070.96	324
2078.95	320
2086.93	322
2094.91	344
2102.87	316
2110.83	322
2118.77	306
2126.71	352
2134.63	328
2142.55	336
2150.46	326
2158.35	340
2166.24	332
2174.12	320
2181.99	338
2189.85	330
2197.7	338
2205.55	338
2213.38	330
2221.2	332
2229.02	332
2236.82	324
2244.62	348
2252.4	346
2260.18	356
2267.95	340
2275.71	336
2283.46	334
2291.2	344
2298.93	336
2306.65	334
2314.37	348
2322.07	350
2329.77	326
2337.45	364
2345.13	338
2352.8	352
2360.46	360
2368.11	354
2375.75	350
2383.38	344
2391.01	362
2398.62	338
2406.23	364
2413.82	340
2421.41	356
2428.99	340
2436.56	368
2444.12	360
2449.79	374