File: Jesse_Dataset_v2/Pure Raman/Polystyrene/633nm/ps-ppo-7jan25-1,0000-map3_Y05_X09.txt
182.393	1036
192.79	982
203.174	966
213.542	1080
223.897	1096
234.238	870
244.566	548
254.878	418
265.178	402
275.463	342
285.734	308
295.992	302
306.236	264
316.467	270
326.684	260
336.887	264
347.075	256
357.251	246
367.413	230
377.562	256
387.697	298
397.819	324
407.926	384
418.02	320
428.101	260
438.169	240
448.223	228
458.264	204
468.291	208
478.306	204
488.307	202
498.294	202
508.269	214
518.23	216
528.177	220
538.113	278
548.034	290
557.942	264
567.838	250
577.72	282
587.589	232
597.446	230
607.289	276
617.119	446
626.936	568
636.741	224
646.533	202
656.313	194
666.078	188
675.831	190
685.571	198
695.299	184
705.014	232
714.716	226
724.406	318
734.082	278
743.746	398
753.398	412
763.037	478
772.664	444
782.278	450
791.879	662
801.467	648
811.044	406
820.608	304
830.16	278
839.699	356
849.226	362
858.741	300
868.243	308
877.731	302
887.209	284
896.674	304
906.128	352
915.569	322
924.997	258
934.414	278
943.818	282
953.211	294
962.59	292
971.958	350
981.314	482
990.659	1198
999.99	4234
1009.31	1620
1018.62	480
1027.91	1180
1037.2	1446
1046.47	498
1055.73	414
1064.98	442
1074.22	446
1083.44	446
1092.65	438
1101.86	438
1111.05	366
1120.22	342
1129.39	294
1138.54	310
1147.69	420
1156.82	992
1165.94	552
1175.05	644
1184.14	1200
1193.23	1158
1202.3	1186
1211.36	750
1220.41	516
1229.45	448
1238.48	410
1247.5	394
1256.5	358
1265.49	374
1274.48	374
1283.45	372
1292.41	386
1301.36	440
1310.29	450
1319.22	470
1328.13	558
1337.04	538
1345.93	420
1354.81	410
1363.68	400
1372.54	418
1381.38	366
1390.22	304
1399.05	300
1407.86	302
1416.66	292
1425.46	284
1434.24	366
1443.01	516
1451.77	626
1460.52	406
1469.25	304
1477.98	302
1486.7	296
1495.4	324
1504.1	294
1512.78	282
1521.45	308
1530.11	288
1538.76	304
1547.41	318
1556.03	320
1564.65	342
1573.26	396
1581.86	844
1590.45	584
1599.02	1266
1607.59	1290
1616.14	502
1624.69	374
1633.22	358
1641.75	354
1650.26	380
1658.76	328
1667.26	310
1675.74	312
1684.21	306
1692.67	308
1701.12	320
1709.56	294
1717.99	280
1726.41	314
1734.82	296
1743.22	310
1751.61	318
1759.99	300
1768.36	290
1776.71	296
1785.06	298
1793.4	296
1801.73	306
1810.04	312
1818.35	338
1826.65	324
1834.94	302
1843.21	316
1851.48	316
1859.74	310
1867.98	298
1876.22	290
1884.45	328
1892.67	324
1900.87	326
1909.07	320
1917.26	324
1925.43	326
1933.6	312
1941.76	330
1949.91	342
1958.05	344
1966.17	330
1974.29	326
1982.4	340
1990.5	322
1998.59	316
2006.67	332
2014.74	334
2022.8	336
2030.85	352
2038.89	322
2046.92	342
2054.94	346
2062.95	338
2070.96	360
2078.95	348
2086.93	346
2094.91	336
2102.87	358
2110.83	338
2118.77	358
2126.71	362
2134.63	342
2142.55	336
2150.46	336
2158.35	346
2166.24	348
2174.12	356
2181.99	350
2189.85	352
2197.7	356
2205.55	344
2213.38	342
2221.2	350
2229.02	348
2236.82	354
2244.62	352
2252.4	350
2260.18	354
2267.95	360
2275.71	370
2283.46	366
2291.2	366
2298.93	362
2306.65	348
2314.37	368
2322.07	352
2329.77	374
2337.45	348
2345.13	370
2352.8	364
2360.46	362
2368.11	370
2375.75	364
2383.38	350
2391.01	354
2398.62	352
2406.23	376
2413.82	364
2421.41	346
2428.99	360
2436.56	392
2444.12	380
2449.79	382