File: Jesse_Dataset_v2/Pure Raman/Polystyrene/633nm/ps-ppo-7jan25-1,0000-map3_Y06_X00.txt
182.393	1032
192.79	956
203.174	982
213.542	1042
223.897	1080
234.238	848
244.566	544
254.878	400
265.178	356
275.463	346
285.734	310
295.992	258
306.236	242
316.467	246
326.684	236
336.887	236
347.075	238
357.251	230
367.413	238
377.562	262
387.697	282
397.819	290
407.926	356
418.02	310
428.101	250
438.169	232
448.223	234
458.264	196
468.291	190
478.306	196
488.307	198
498.294	190
508.269	222
518.23	178
528.177	224
538.113	252
548.034	282
557.942	268
567.838	264
577.72	246
587.589	228
597.446	226
607.289	264
617.119	438
626.936	564
636.741	244
646.533	192
656.313	178
666.078	188
675.831	168
685.571	184
695.299	184
705.014	230
714.716	228
724.406	306
734.082	288
743.746	378
753.398	448
763.037	494
772.664	436
782.278	472
791.879	658
801.467	642
811.044	412
820.608	298
830.16	274
839.699	362
849.226	342
858.741	302
868.243	288
877.731	290
887.209	276
896.674	286
906.128	356
915.569	318
924.997	280
934.414	266
943.818	280
953.211	266
962.59	310
971.958	346
981.314	450
990.659	1170
999.99	4170
1009.31	1574
1018.62	448
1027.91	1192
1037.2	1420
1046.47	506
1055.73	412
1064.98	426
1074.22	446
1083.44	436
1092.65	408
1101.86	432
1111.05	340
1120.22	334
1129.39	282
1138.54	312
1147.69	416
1156.82	990
1165.94	524
1175.05	616
1184.14	1242
1193.23	1114
1202.3	1170
1211.36	738
1220.41	476
1229.45	458
1238.48	382
1247.5	382
1256.5	352
1265.49	378
1274.48	362
1283.45	382
1292.41	366
1301.36	428
1310.29	430
1319.22	480
1328.13	522
1337.04	490
1345.93	398
1354.81	376
1363.68	392
1372.54	374
1381.38	348
1390.22	292
1399.05	282
1407.86	266
1416.66	280
1425.46	288
1434.24	336
1443.01	494
1451.77	644
1460.52	416
1469.25	294
1477.98	282
1486.7	274
1495.4	304
1504.1	276
1512.78	278
1521.45	286
1530.11	264
1538.76	290
1547.41	288
1556.03	288
1564.65	304
1573.26	388
1581.86	822
1590.45	624
1599.02	1236
1607.59	1326
1616.14	502
1624.69	388
1633.22	348
1641.75	352
1650.26	366
1658.76	322
1667.26	304
1675.74	306
1684.21	304
1692.67	302
1701.12	320
1709.56	310
1717.99	298
1726.41	292
1734.82	308
1743.22	312
1751.61	278
1759.99	302
1768.36	302
1776.71	296
1785.06	304
1793.4	294
1801.73	304
1810.04	304
1818.35	330
1826.65	294
1834.94	316
1843.21	304
1851.48	308
1859.74	324
1867.98	306
1876.22	320
1884.45	318
1892.67	316
1900.87	324
1909.07	330
1917.26	328
1925.43	334
1933.6	322
1941.76	314
1949.91	346
1958.05	326
1966.17	324
1974.29	328
1982.4	324
1990.5	326
1998.59	326
2006.67	322
2014.74	358
2022.8	328
2030.85	342
2038.89	344
2046.92	354
2054.94	344
2062.95	348
2070.96	348
2078.95	320
2086.93	340
2094.91	326
2102.87	348
2110.83	350
2118.77	326
2126.71	350
2134.63	348
2142.55	344
2150.46	360
2158.35	346
2166.24	362
2174.12	352
2181.99	348
2189.85	356
2197.7	362
2205.55	356
2213.38	348
2221.2	356
2229.02	332
2236.82	348
2244.62	356
2252.4	354
2260.18	352
2267.95	346
2275.71	340
2283.46	346
2291.2	356
2298.93	354
2306.65	344
2314.37	366
2322.07	358
2329.77	366
2337.45	374
2345.13	354
2352.8	348
2360.46	370
2368.11	344
2375.75	360
2383.38	364
2391.01	366
2398.62	358
2406.23	364
2413.82	378
2421.41	366
2428.99	374
2436.56	374
2444.12	374
2449.79	376