File: Jesse_Dataset_v2/Pure Raman/Polystyrene/633nm/ps-ppo-7jan25-1,0000-map3_Y05_X08.txt
182.393	1032
192.79	956
203.174	932
213.542	1038
223.897	1086
234.238	862
244.566	538
254.878	408
265.178	368
275.463	358
285.734	298
295.992	280
306.236	266
316.467	264
326.684	274
336.887	262
347.075	248
357.251	250
367.413	236
377.562	266
387.697	282
397.819	306
407.926	388
418.02	310
428.101	262
438.169	248
448.223	248
458.264	206
468.291	206
478.306	206
488.307	222
498.294	210
508.269	218
518.23	218
528.177	242
538.113	264
548.034	290
557.942	276
567.838	276
577.72	268
587.589	240
597.446	254
607.289	298
617.119	444
626.936	552
636.741	244
646.533	204
656.313	192
666.078	192
675.831	188
685.571	192
695.299	212
705.014	240
714.716	234
724.406	304
734.082	298
743.746	384
753.398	448
763.037	496
772.664	438
782.278	470
791.879	666
801.467	620
811.044	428
820.608	304
830.16	284
839.699	366
849.226	366
858.741	310
868.243	316
877.731	296
887.209	302
896.674	318
906.128	374
915.569	328
924.997	268
934.414	274
943.818	288
953.211	282
962.59	318
971.958	356
981.314	454
990.659	1172
999.99	4194
1009.31	1598
1018.62	474
1027.91	1202
1037.2	1426
1046.47	502
1055.73	386
1064.98	416
1074.22	456
1083.44	440
1092.65	418
1101.86	432
1111.05	366
1120.22	304
1129.39	296
1138.54	310
1147.69	416
1156.82	966
1165.94	526
1175.05	632
1184.14	1180
1193.23	1154
1202.3	1166
1211.36	736
1220.41	498
1229.45	440
1238.48	390
1247.5	378
1256.5	374
1265.49	350
1274.48	348
1283.45	364
1292.41	402
1301.36	426
1310.29	428
1319.22	456
1328.13	542
1337.04	490
1345.93	414
1354.81	386
1363.68	390
1372.54	386
1381.38	354
1390.22	282
1399.05	288
1407.86	292
1416.66	282
1425.46	290
1434.24	342
1443.01	494
1451.77	614
1460.52	422
1469.25	308
1477.98	286
1486.7	296
1495.4	312
1504.1	292
1512.78	292
1521.45	310
1530.11	310
1538.76	300
1547.41	312
1556.03	324
1564.65	324
1573.26	398
1581.86	822
1590.45	622
1599.02	1240
1607.59	1332
1616.14	502
1624.69	400
1633.22	350
1641.75	368
1650.26	374
1658.76	330
1667.26	308
1675.74	336
1684.21	322
1692.67	328
1701.12	318
1709.56	324
1717.99	338
1726.41	330
1734.82	338
1743.22	314
1751.61	324
1759.99	310
1768.36	318
1776.71	330
1785.06	328
1793.4	330
1801.73	324
1810.04	334
1818.35	358
1826.65	356
1834.94	320
1843.21	316
1851.48	326
1859.74	348
1867.98	328
1876.22	336
1884.45	348
1892.67	342
1900.87	346
1909.07	364
1917.26	336
1925.43	350
1933.6	360
1941.76	350
1949.91	346
1958.05	356
1966.17	350
1974.29	366
1982.4	358
1990.5	358
1998.59	336
2006.67	346
2014.74	342
2022.8	340
2030.85	358
2038.89	340
2046.92	360
2054.94	360
2062.95	360
2070.96	362
2078.95	352
2086.93	358
2094.91	362
2102.87	376
2110.83	384
2118.77	344
2126.71	376
2134.63	348
2142.55	362
2150.46	358
2158.35	354
2166.24	368
2174.12	372
2181.99	364
2189.85	378
2197.7	346
2205.55	372
2213.38	366
2221.2	358
2229.02	360
2236.82	358
2244.62	356
2252.4	392
2260.18	368
2267.95	368
2275.71	368
2283.46	360
2291.2	352
2298.93	362
2306.65	378
2314.37	356
2322.07	364
2329.77	364
2337.45	370
2345.13	378
2352.8	366
2360.46	356
2368.11	368
2375.75	360
2383.38	346
2391.01	376
2398.62	346
2406.23	384
2413.82	370
2421.41	372
2428.99	384
2436.56	364
2444.12	380
2449.79	376