File: Jesse_Dataset_v2/Pure Raman/Polystyrene/633nm/ps-ppo-7jan25-1,0000-map3_Y09_X08.txt
182.393	1122
192.79	990
203.174	1032
213.542	1126
223.897	1174
234.238	942
244.566	590
254.878	474
265.178	420
275.463	392
285.734	384
295.992	356
306.236	320
316.467	346
326.684	342
336.887	354
347.075	346
357.251	312
367.413	308
377.562	338
387.697	356
397.819	368
407.926	450
418.02	394
428.101	356
438.169	344
448.223	332
458.264	306
468.291	288
478.306	286
488.307	298
498.294	312
508.269	304
518.23	318
528.177	310
538.113	354
548.034	350
557.942	350
567.838	360
577.72	354
587.589	310
597.446	312
607.289	366
617.119	516
626.936	632
636.741	308
646.533	270
656.313	264
666.078	268
675.831	262
685.571	262
695.299	266
705.014	298
714.716	298
724.406	374
734.082	362
743.746	458
753.398	518
763.037	588
772.664	496
782.278	550
791.879	730
801.467	684
811.044	492
820.608	374
830.16	344
839.699	440
849.226	422
858.741	362
868.243	358
877.731	362
887.209	336
896.674	358
906.128	430
915.569	374
924.997	312
934.414	324
943.818	330
953.211	328
962.59	344
971.958	398
981.314	520
990.659	1194
999.99	4258
1009.31	1630
1018.62	538
1027.91	1276
1037.2	1460
1046.47	514
1055.73	454
1064.98	472
1074.22	508
1083.44	500
1092.65	460
1101.86	494
1111.05	408
1120.22	364
1129.39	336
1138.54	348
1147.69	474
1156.82	1030
1165.94	576
1175.05	674
1184.14	1238
1193.23	1168
1202.3	1220
1211.36	768
1220.41	534
1229.45	492
1238.48	440
1247.5	434
1256.5	404
1265.49	426
1274.48	412
1283.45	392
1292.41	448
1301.36	446
1310.29	488
1319.22	526
1328.13	582
1337.04	550
1345.93	434
1354.81	440
1363.68	454
1372.54	424
1381.38	406
1390.22	338
1399.05	334
1407.86	328
1416.66	332
1425.46	334
1434.24	392
1443.01	540
1451.77	668
1460.52	444
1469.25	326
1477.98	330
1486.7	336
1495.4	370
1504.1	312
1512.78	318
1521.45	330
1530.11	324
1538.76	324
1547.41	354
1556.03	334
1564.65	384
1573.26	426
1581.86	874
1590.45	672
1599.02	1266
1607.59	1312
1616.14	512
1624.69	406
1633.22	376
1641.75	386
1650.26	400
1658.76	352
1667.26	326
1675.74	352
1684.21	342
1692.67	350
1701.12	346
1709.56	328
1717.99	348
1726.41	344
1734.82	326
1743.22	328
1751.61	326
1759.99	342
1768.36	338
1776.71	328
1785.06	352
1793.4	342
1801.73	346
1810.04	326
1818.35	348
1826.65	348
1834.94	340
1843.21	338
1851.48	354
1859.74	338
1867.98	354
1876.22	340
1884.45	328
1892.67	330
1900.87	360
1909.07	356
1917.26	344
1925.43	350
1933.6	362
1941.76	364
1949.91	354
1958.05	344
1966.17	356
1974.29	340
1982.4	338
1990.5	336
1998.59	352
2006.67	338
2014.74	342
2022.8	364
2030.85	346
2038.89	352
2046.92	356
2054.94	358
2062.95	362
2070.96	350
2078.95	356
2086.93	364
2094.91	364
2102.87	356
2110.83	346
2118.77	370
2126.71	370
2134.63	346
2142.55	356
2150.46	358
2158.35	348
2166.24	372
2174.12	378
2181.99	364
2189.85	346
2197.7	354
2205.55	364
2213.38	362
2221.2	364
2229.02	354
2236.82	346
2244.62	372
2252.4	350
2260.18	362
2267.95	382
2275.71	362
2283.46	370
2291.2	348
2298.93	362
2306.65	370
2314.37	374
2322.07	380
2329.77	352
2337.45	382
2345.13	362
2352.8	362
2360.46	358
2368.11	372
2375.75	386
2383.38	364
2391.01	378
2398.62	362
2406.23	366
2413.82	356
2421.41	386
2428.99	378
2436.56	362
2444.12	378
2449.79	382