File: Jesse_Dataset_v2/Pure Raman/Polystyrene/633nm/ps-ppo-7jan25-1,0000-map3_Y00_X01.txt
182.393	1040
192.79	974
203.174	968
213.542	1090
223.897	1090
234.238	868
244.566	536
254.878	412
265.178	374
275.463	348
285.734	300
295.992	278
306.236	250
316.467	280
326.684	270
336.887	266
347.075	238
357.251	216
367.413	250
377.562	244
387.697	290
397.819	314
407.926	372
418.02	322
428.101	258
438.169	258
448.223	238
458.264	212
468.291	198
478.306	212
488.307	196
498.294	210
508.269	214
518.23	206
528.177	244
538.113	278
548.034	274
557.942	264
567.838	292
577.72	286
587.589	240
597.446	242
607.289	292
617.119	440
626.936	582
636.741	254
646.533	218
656.313	214
666.078	196
675.831	200
685.571	200
695.299	208
705.014	242
714.716	228
724.406	320
734.082	296
743.746	404
753.398	432
763.037	508
772.664	422
782.278	494
791.879	678
801.467	666
811.044	430
820.608	320
830.16	304
839.699	368
849.226	382
858.741	306
868.243	322
877.731	310
887.209	312
896.674	292
906.128	396
915.569	340
924.997	292
934.414	258
943.818	298
953.211	290
962.59	338
971.958	356
981.314	474
990.659	1188
999.99	4176
1009.31	1592
1018.62	468
1027.91	1212
1037.2	1474
1046.47	520
1055.73	416
1064.98	458
1074.22	490
1083.44	436
1092.65	446
1101.86	470
1111.05	386
1120.22	352
1129.39	306
1138.54	322
1147.69	424
1156.82	1004
1165.94	558
1175.05	642
1184.14	1220
1193.23	1176
1202.3	1172
1211.36	762
1220.41	482
1229.45	464
1238.48	392
1247.5	386
1256.5	402
1265.49	360
1274.48	376
1283.45	366
1292.41	408
1301.36	420
1310.29	438
1319.22	492
1328.13	552
1337.04	516
1345.93	436
1354.81	380
1363.68	390
1372.54	404
1381.38	376
1390.22	292
1399.05	298
1407.86	300
1416.66	302
1425.46	292
1434.24	364
1443.01	522
1451.77	632
1460.52	402
1469.25	332
1477.98	300
1486.7	300
1495.4	328
1504.1	288
1512.78	304
1521.45	284
1530.11	290
1538.76	320
1547.41	322
1556.03	306
1564.65	344
1573.26	398
1581.86	836
1590.45	632
1599.02	1196
1607.59	1324
1616.14	492
1624.69	404
1633.22	366
1641.75	346
1650.26	350
1658.76	316
1667.26	292
1675.74	316
1684.21	318
1692.67	322
1701.12	318
1709.56	294
1717.99	334
1726.41	348
1734.82	304
1743.22	320
1751.61	294
1759.99	308
1768.36	308
1776.71	314
1785.06	286
1793.4	328
1801.73	306
1810.04	320
1818.35	330
1826.65	332
1834.94	304
1843.21	300
1851.48	310
1859.74	306
1867.98	322
1876.22	314
1884.45	312
1892.67	294
1900.87	320
1909.07	334
1917.26	340
1925.43	328
1933.6	312
1941.76	346
1949.91	320
1958.05	306
1966.17	342
1974.29	356
1982.4	320
1990.5	318
1998.59	332
2006.67	342
2014.74	334
2022.8	356
2030.85	358
2038.89	346
2046.92	354
2054.94	338
2062.95	346
2070.96	344
2078.95	344
2086.93	340
2094.91	326
2102.87	340
2110.83	338
2118.77	362
2126.71	348
2134.63	336
2142.55	346
2150.46	336
2158.35	350
2166.24	340
2174.12	332
2181.99	336
2189.85	352
2197.7	354
2205.55	358
2213.38	362
2221.2	332
2229.02	348
2236.82	366
2244.62	354
2252.4	342
2260.18	346
2267.95	360
2275.71	346
2283.46	362
2291.2	346
2298.93	346
2306.65	360
2314.37	364
2322.07	354
2329.77	352
2337.45	358
2345.13	390
2352.8	366
2360.46	368
2368.11	382
2375.75	364
2383.38	360
2391.01	356
2398.62	370
2406.23	352
2413.82	370
2421.41	380
2428.99	366
2436.56	368
2444.12	358
2449.79	392