File: Jesse_Dataset_v2/Pure Raman/Polystyrene/633nm/ps-ppo-7jan25-1,0000-map3_Y01_X02.txt
182.393	1154
192.79	1056
203.174	1042
213.542	1136
223.897	1192
234.238	956
244.566	636
254.878	480
265.178	454
275.463	430
285.734	380
295.992	346
306.236	352
316.467	342
326.684	346
336.887	310
347.075	324
357.251	312
367.413	320
377.562	326
387.697	356
397.819	366
407.926	432
418.02	380
428.101	332
438.169	304
448.223	296
458.264	262
468.291	256
478.306	262
488.307	244
498.294	260
508.269	286
518.23	236
528.177	282
538.113	314
548.034	330
557.942	322
567.838	292
577.72	298
587.589	252
597.446	274
607.289	306
617.119	474
626.936	598
636.741	264
646.533	228
656.313	222
666.078	214
675.831	204
685.571	218
695.299	226
705.014	250
714.716	252
724.406	352
734.082	304
743.746	434
753.398	452
763.037	518
772.664	462
782.278	506
791.879	696
801.467	652
811.044	442
820.608	322
830.16	296
839.699	368
849.226	382
858.741	330
868.243	350
877.731	326
887.209	324
896.674	344
906.128	418
915.569	336
924.997	292
934.414	318
943.818	308
953.211	332
962.59	336
971.958	368
981.314	520
990.659	1228
999.99	4228
1009.31	1642
1018.62	532
1027.91	1230
1037.2	1492
1046.47	540
1055.73	482
1064.98	472
1074.22	486
1083.44	508
1092.65	506
1101.86	500
1111.05	434
1120.22	382
1129.39	334
1138.54	366
1147.69	466
1156.82	1030
1165.94	580
1175.05	688
1184.14	1284
1193.23	1224
1202.3	1240
1211.36	794
1220.41	538
1229.45	516
1238.48	454
1247.5	436
1256.5	422
1265.49	410
1274.48	406
1283.45	404
1292.41	442
1301.36	472
1310.29	500
1319.22	530
1328.13	592
1337.04	548
1345.93	454
1354.81	444
1363.68	430
1372.54	450
1381.38	398
1390.22	330
1399.05	336
1407.86	312
1416.66	304
1425.46	324
1434.24	384
1443.01	516
1451.77	656
1460.52	420
1469.25	320
1477.98	326
1486.7	316
1495.4	352
1504.1	302
1512.78	294
1521.45	304
1530.11	308
1538.76	310
1547.41	298
1556.03	328
1564.65	360
1573.26	414
1581.86	850
1590.45	620
1599.02	1268
1607.59	1330
1616.14	492
1624.69	414
1633.22	344
1641.75	360
1650.26	388
1658.76	328
1667.26	328
1675.74	324
1684.21	318
1692.67	316
1701.12	312
1709.56	288
1717.99	312
1726.41	316
1734.82	304
1743.22	304
1751.61	300
1759.99	324
1768.36	292
1776.71	324
1785.06	312
1793.4	308
1801.73	292
1810.04	330
1818.35	316
1826.65	318
1834.94	316
1843.21	328
1851.48	286
1859.74	296
1867.98	304
1876.22	314
1884.45	306
1892.67	316
1900.87	332
1909.07	312
1917.26	298
1925.43	334
1933.6	318
1941.76	330
1949.91	320
1958.05	316
1966.17	314
1974.29	306
1982.4	300
1990.5	314
1998.59	334
2006.67	322
2014.74	328
2022.8	320
2030.85	312
2038.89	346
2046.92	332
2054.94	300
2062.95	356
2070.96	344
2078.95	334
2086.93	332
2094.91	338
2102.87	336
2110.83	338
2118.77	342
2126.71	334
2134.63	326
2142.55	342
2150.46	318
2158.35	336
2166.24	346
2174.12	332
2181.99	320
2189.85	344
2197.7	338
2205.55	346
2213.38	324
2221.2	348
2229.02	358
2236.82	340
2244.62	324
2252.4	348
2260.18	344
2267.95	322
2275.71	350
2283.46	344
2291.2	346
2298.93	330
2306.65	354
2314.37	332
2322.07	340
2329.77	352
2337.45	340
2345.13	358
2352.8	368
2360.46	360
2368.11	350
2375.75	366
2383.38	352
2391.01	350
2398.62	366
2406.23	340
2413.82	350
2421.41	366
2428.99	364
2436.56	366
2444.12	358
2449.79	376