File: Jesse_Dataset_v2/Pure Raman/Polystyrene/633nm/ps-ppo-7jan25-1,0000-map3_Y02_X01.txt
182.393	1046
192.79	1004
203.174	966
213.542	1088
223.897	1080
234.238	850
244.566	566
254.878	394
265.178	380
275.463	348
285.734	300
295.992	274
306.236	262
316.467	254
326.684	246
336.887	260
347.075	254
357.251	228
367.413	242
377.562	260
387.697	274
397.819	298
407.926	388
418.02	300
428.101	262
438.169	228
448.223	230
458.264	194
468.291	188
478.306	202
488.307	190
498.294	194
508.269	222
518.23	214
528.177	238
538.113	262
548.034	278
557.942	266
567.838	278
577.72	280
587.589	234
597.446	222
607.289	292
617.119	434
626.936	560
636.741	254
646.533	202
656.313	188
666.078	200
675.831	190
685.571	184
695.299	200
705.014	228
714.716	240
724.406	302
734.082	284
743.746	430
753.398	454
763.037	498
772.664	414
782.278	480
791.879	650
801.467	670
811.044	442
820.608	318
830.16	290
839.699	354
849.226	368
858.741	336
868.243	322
877.731	332
887.209	316
896.674	310
906.128	386
915.569	340
924.997	284
934.414	284
943.818	322
953.211	306
962.59	336
971.958	372
981.314	512
990.659	1200
999.99	4190
1009.31	1610
1018.62	518
1027.91	1216
1037.2	1496
1046.47	506
1055.73	462
1064.98	466
1074.22	498
1083.44	468
1092.65	480
1101.86	484
1111.05	410
1120.22	330
1129.39	338
1138.54	334
1147.69	438
1156.82	1028
1165.94	552
1175.05	644
1184.14	1264
1193.23	1144
1202.3	1174
1211.36	764
1220.41	526
1229.45	494
1238.48	412
1247.5	402
1256.5	370
1265.49	398
1274.48	386
1283.45	382
1292.41	408
1301.36	420
1310.29	444
1319.22	492
1328.13	540
1337.04	520
1345.93	410
1354.81	388
1363.68	384
1372.54	398
1381.38	368
1390.22	316
1399.05	298
1407.86	302
1416.66	284
1425.46	284
1434.24	332
1443.01	526
1451.77	630
1460.52	402
1469.25	302
1477.98	312
1486.7	292
1495.4	308
1504.1	280
1512.78	276
1521.45	294
1530.11	278
1538.76	278
1547.41	290
1556.03	306
1564.65	314
1573.26	370
1581.86	792
1590.45	622
1599.02	1184
1607.59	1318
1616.14	470
1624.69	374
1633.22	312
1641.75	350
1650.26	362
1658.76	312
1667.26	304
1675.74	302
1684.21	294
1692.67	280
1701.12	304
1709.56	302
1717.99	314
1726.41	298
1734.82	292
1743.22	294
1751.61	302
1759.99	288
1768.36	282
1776.71	294
1785.06	288
1793.4	304
1801.73	304
1810.04	312
1818.35	310
1826.65	294
1834.94	308
1843.21	282
1851.48	298
1859.74	294
1867.98	278
1876.22	314
1884.45	318
1892.67	302
1900.87	310
1909.07	288
1917.26	312
1925.43	308
1933.6	318
1941.76	314
1949.91	316
1958.05	324
1966.17	336
1974.29	320
1982.4	328
1990.5	322
1998.59	314
2006.67	312
2014.74	330
2022.8	330
2030.85	314
2038.89	336
2046.92	314
2054.94	322
2062.95	328
2070.96	334
2078.95	334
2086.93	322
2094.91	326
2102.87	318
2110.83	336
2118.77	350
2126.71	314
2134.63	314
2142.55	332
2150.46	344
2158.35	344
2166.24	342
2174.12	328
2181.99	352
2189.85	338
2197.7	324
2205.55	348
2213.38	332
2221.2	352
2229.02	358
2236.82	338
2244.62	326
2252.4	354
2260.18	356
2267.95	358
2275.71	346
2283.46	330
2291.2	368
2298.93	342
2306.65	350
2314.37	344
2322.07	348
2329.77	338
2337.45	348
2345.13	330
2352.8	366
2360.46	358
2368.11	350
2375.75	354
2383.38	350
2391.01	362
2398.62	358
2406.23	384
2413.82	346
2421.41	356
2428.99	370
2436.56	344
2444.12	370
2449.79	376