File: Jesse_Dataset_v2/Pure Raman/Polystyrene/633nm/ps-ppo-7jan25-1,0000-map3_Y06_X03.txt
182.393	1044
192.79	962
203.174	964
213.542	1054
223.897	1088
234.238	848
244.566	540
254.878	400
265.178	362
275.463	346
285.734	314
295.992	274
306.236	252
316.467	288
326.684	262
336.887	256
347.075	252
357.251	228
367.413	242
377.562	264
387.697	268
397.819	326
407.926	360
418.02	298
428.101	284
438.169	258
448.223	220
458.264	210
468.291	198
478.306	208
488.307	208
498.294	202
508.269	206
518.23	230
528.177	246
538.113	266
548.034	290
557.942	286
567.838	280
577.72	282
587.589	242
597.446	240
607.289	282
617.119	448
626.936	562
636.741	230
646.533	206
656.313	202
666.078	196
675.831	196
685.571	192
695.299	206
705.014	242
714.716	244
724.406	316
734.082	290
743.746	414
753.398	450
763.037	486
772.664	442
782.278	476
791.879	666
801.467	656
811.044	408
820.608	334
830.16	276
839.699	366
849.226	366
858.741	324
868.243	308
877.731	300
887.209	292
896.674	290
906.128	376
915.569	342
924.997	268
934.414	278
943.818	288
953.211	292
962.59	328
971.958	332
981.314	472
990.659	1186
999.99	4198
1009.31	1590
1018.62	460
1027.91	1196
1037.2	1432
1046.47	512
1055.73	424
1064.98	418
1074.22	454
1083.44	446
1092.65	436
1101.86	444
1111.05	346
1120.22	318
1129.39	286
1138.54	314
1147.69	424
1156.82	1024
1165.94	526
1175.05	644
1184.14	1216
1193.23	1118
1202.3	1160
1211.36	736
1220.41	490
1229.45	450
1238.48	376
1247.5	372
1256.5	350
1265.49	364
1274.48	352
1283.45	374
1292.41	376
1301.36	416
1310.29	442
1319.22	466
1328.13	548
1337.04	518
1345.93	396
1354.81	374
1363.68	388
1372.54	398
1381.38	356
1390.22	290
1399.05	292
1407.86	288
1416.66	272
1425.46	282
1434.24	340
1443.01	480
1451.77	584
1460.52	394
1469.25	296
1477.98	294
1486.7	292
1495.4	296
1504.1	282
1512.78	266
1521.45	278
1530.11	288
1538.76	286
1547.41	294
1556.03	276
1564.65	326
1573.26	392
1581.86	822
1590.45	618
1599.02	1236
1607.59	1304
1616.14	508
1624.69	362
1633.22	326
1641.75	326
1650.26	346
1658.76	282
1667.26	304
1675.74	312
1684.21	302
1692.67	306
1701.12	292
1709.56	298
1717.99	272
1726.41	284
1734.82	274
1743.22	294
1751.61	302
1759.99	280
1768.36	282
1776.71	290
1785.06	284
1793.4	306
1801.73	304
1810.04	300
1818.35	320
1826.65	304
1834.94	282
1843.21	310
1851.48	290
1859.74	304
1867.98	304
1876.22	312
1884.45	290
1892.67	296
1900.87	318
1909.07	312
1917.26	300
1925.43	322
1933.6	314
1941.76	324
1949.91	326
1958.05	330
1966.17	312
1974.29	308
1982.4	312
1990.5	312
1998.59	344
2006.67	316
2014.74	318
2022.8	318
2030.85	336
2038.89	334
2046.92	330
2054.94	338
2062.95	328
2070.96	322
2078.95	310
2086.93	320
2094.91	344
2102.87	326
2110.83	348
2118.77	346
2126.71	344
2134.63	338
2142.55	342
2150.46	334
2158.35	348
2166.24	350
2174.12	322
2181.99	334
2189.85	340
2197.7	330
2205.55	332
2213.38	344
2221.2	348
2229.02	350
2236.82	358
2244.62	330
2252.4	336
2260.18	346
2267.95	348
2275.71	338
2283.46	338
2291.2	352
2298.93	348
2306.65	330
2314.37	358
2322.07	352
2329.77	372
2337.45	358
2345.13	378
2352.8	350
2360.46	362
2368.11	350
2375.75	352
2383.38	344
2391.01	354
2398.62	364
2406.23	352
2413.82	344
2421.41	334
2428.99	346
2436.56	372
2444.12	358
2449.79	360