File: Jesse_Dataset_v2/Pure Raman/Polystyrene/633nm/ps-ppo-7jan25-1,0000-map3_Y07_X05.txt
182.393	1114
192.79	1056
203.174	1052
213.542	1172
223.897	1136
234.238	962
244.566	630
254.878	474
265.178	452
275.463	400
285.734	374
295.992	340
306.236	324
316.467	344
326.684	332
336.887	326
347.075	326
357.251	310
367.413	280
377.562	302
387.697	338
397.819	352
407.926	410
418.02	368
428.101	312
438.169	290
448.223	286
458.264	260
468.291	242
478.306	238
488.307	242
498.294	244
508.269	264
518.23	258
528.177	274
538.113	316
548.034	310
557.942	316
567.838	310
577.72	310
587.589	262
597.446	270
607.289	306
617.119	472
626.936	604
636.741	266
646.533	234
656.313	230
666.078	244
675.831	212
685.571	220
695.299	224
705.014	262
714.716	270
724.406	360
734.082	332
743.746	446
753.398	464
763.037	548
772.664	490
782.278	476
791.879	698
801.467	708
811.044	432
820.608	344
830.16	334
839.699	422
849.226	398
858.741	348
868.243	358
877.731	368
887.209	346
896.674	378
906.128	434
915.569	384
924.997	346
934.414	340
943.818	354
953.211	344
962.59	378
971.958	424
981.314	546
990.659	1284
999.99	4342
1009.31	1620
1018.62	546
1027.91	1266
1037.2	1516
1046.47	580
1055.73	490
1064.98	496
1074.22	554
1083.44	546
1092.65	526
1101.86	524
1111.05	470
1120.22	412
1129.39	364
1138.54	394
1147.69	520
1156.82	1092
1165.94	608
1175.05	736
1184.14	1324
1193.23	1272
1202.3	1288
1211.36	826
1220.41	610
1229.45	542
1238.48	478
1247.5	488
1256.5	474
1265.49	472
1274.48	432
1283.45	450
1292.41	504
1301.36	520
1310.29	530
1319.22	558
1328.13	638
1337.04	604
1345.93	496
1354.81	484
1363.68	498
1372.54	486
1381.38	470
1390.22	394
1399.05	384
1407.86	400
1416.66	356
1425.46	376
1434.24	424
1443.01	612
1451.77	724
1460.52	494
1469.25	388
1477.98	388
1486.7	382
1495.4	404
1504.1	382
1512.78	388
1521.45	382
1530.11	382
1538.76	376
1547.41	382
1556.03	386
1564.65	422
1573.26	460
1581.86	892
1590.45	690
1599.02	1306
1607.59	1376
1616.14	552
1624.69	444
1633.22	394
1641.75	410
1650.26	418
1658.76	380
1667.26	388
1675.74	376
1684.21	362
1692.67	370
1701.12	356
1709.56	358
1717.99	364
1726.41	344
1734.82	348
1743.22	360
1751.61	342
1759.99	336
1768.36	332
1776.71	336
1785.06	358
1793.4	340
1801.73	364
1810.04	346
1818.35	352
1826.65	330
1834.94	352
1843.21	350
1851.48	342
1859.74	338
1867.98	330
1876.22	344
1884.45	326
1892.67	344
1900.87	344
1909.07	350
1917.26	344
1925.43	338
1933.6	330
1941.76	356
1949.91	344
1958.05	342
1966.17	326
1974.29	336
1982.4	332
1990.5	340
1998.59	362
2006.67	334
2014.74	336
2022.8	330
2030.85	356
2038.89	330
2046.92	346
2054.94	330
2062.95	332
2070.96	344
2078.95	342
2086.93	350
2094.91	328
2102.87	334
2110.83	350
2118.77	354
2126.71	346
2134.63	352
2142.55	360
2150.46	340
2158.35	354
2166.24	328
2174.12	330
2181.99	362
2189.85	340
2197.7	364
2205.55	364
2213.38	360
2221.2	346
2229.02	366
2236.82	358
2244.62	336
2252.4	334
2260.18	352
2267.95	352
2275.71	344
2283.46	366
2291.2	356
2298.93	352
2306.65	362
2314.37	332
2322.07	354
2329.77	346
2337.45	360
2345.13	366
2352.8	360
2360.46	362
2368.11	364
2375.75	366
2383.38	358
2391.01	362
2398.62	366
2406.23	376
2413.82	362
2421.41	362
2428.99	376
2436.56	380
2444.12	392
2449.79	370