File: Jesse_Dataset_v2/Pure Raman/Polystyrene/633nm/ps-ppo-7jan25-1,0000-map3_Y02_X06.txt
182.393	1000
192.79	940
203.174	920
213.542	1018
223.897	1062
234.238	868
244.566	502
254.878	366
265.178	336
275.463	320
285.734	296
295.992	248
306.236	248
316.467	240
326.684	262
336.887	244
347.075	244
357.251	228
367.413	222
377.562	250
387.697	280
397.819	296
407.926	376
418.02	292
428.101	264
438.169	232
448.223	218
458.264	212
468.291	188
478.306	202
488.307	194
498.294	208
508.269	202
518.23	220
528.177	248
538.113	278
548.034	284
557.942	268
567.838	270
577.72	270
587.589	228
597.446	238
607.289	290
617.119	436
626.936	552
636.741	244
646.533	226
656.313	196
666.078	194
675.831	200
685.571	210
695.299	192
705.014	250
714.716	228
724.406	322
734.082	326
743.746	418
753.398	436
763.037	502
772.664	476
782.278	490
791.879	682
801.467	636
811.044	406
820.608	330
830.16	298
839.699	360
849.226	362
858.741	320
868.243	324
877.731	326
887.209	308
896.674	302
906.128	366
915.569	326
924.997	264
934.414	286
943.818	276
953.211	294
962.59	308
971.958	340
981.314	456
990.659	1176
999.99	4224
1009.31	1584
1018.62	460
1027.91	1200
1037.2	1410
1046.47	522
1055.73	404
1064.98	418
1074.22	422
1083.44	458
1092.65	404
1101.86	438
1111.05	360
1120.22	330
1129.39	276
1138.54	298
1147.69	410
1156.82	990
1165.94	554
1175.05	632
1184.14	1192
1193.23	1136
1202.3	1164
1211.36	720
1220.41	498
1229.45	450
1238.48	382
1247.5	360
1256.5	362
1265.49	358
1274.48	342
1283.45	348
1292.41	388
1301.36	418
1310.29	430
1319.22	476
1328.13	548
1337.04	488
1345.93	390
1354.81	376
1363.68	380
1372.54	404
1381.38	364
1390.22	288
1399.05	276
1407.86	274
1416.66	272
1425.46	272
1434.24	320
1443.01	492
1451.77	608
1460.52	368
1469.25	300
1477.98	286
1486.7	258
1495.4	300
1504.1	264
1512.78	260
1521.45	270
1530.11	282
1538.76	280
1547.41	290
1556.03	312
1564.65	306
1573.26	366
1581.86	826
1590.45	620
1599.02	1208
1607.59	1316
1616.14	486
1624.69	362
1633.22	302
1641.75	336
1650.26	350
1658.76	302
1667.26	284
1675.74	300
1684.21	292
1692.67	284
1701.12	302
1709.56	286
1717.99	286
1726.41	278
1734.82	294
1743.22	286
1751.61	272
1759.99	284
1768.36	284
1776.71	306
1785.06	270
1793.4	284
1801.73	296
1810.04	322
1818.35	316
1826.65	312
1834.94	302
1843.21	310
1851.48	312
1859.74	300
1867.98	308
1876.22	298
1884.45	300
1892.67	294
1900.87	284
1909.07	324
1917.26	304
1925.43	310
1933.6	328
1941.76	308
1949.91	310
1958.05	320
1966.17	312
1974.29	316
1982.4	320
1990.5	318
1998.59	306
2006.67	320
2014.74	328
2022.8	328
2030.85	338
2038.89	328
2046.92	332
2054.94	330
2062.95	318
2070.96	340
2078.95	332
2086.93	320
2094.91	320
2102.87	332
2110.83	348
2118.77	340
2126.71	340
2134.63	340
2142.55	344
2150.46	330
2158.35	360
2166.24	342
2174.12	318
2181.99	350
2189.85	332
2197.7	348
2205.55	346
2213.38	356
2221.2	348
2229.02	334
2236.82	334
2244.62	342
2252.4	348
2260.18	350
2267.95	336
2275.71	346
2283.46	342
2291.2	332
2298.93	352
2306.65	370
2314.37	376
2322.07	346
2329.77	346
2337.45	354
2345.13	366
2352.8	352
2360.46	370
2368.11	350
2375.75	356
2383.38	354
2391.01	350
2398.62	380
2406.23	374
2413.82	366
2421.41	342
2428.99	372
2436.56	354
2444.12	376
2449.79	376