File: Jesse_Dataset_v2/Pure Raman/Polystyrene/633nm/ps-ppo-7jan25-1,0000-map3_Y01_X10.txt
182.393	1034
192.79	932
203.174	920
213.542	1050
223.897	1106
234.238	822
244.566	538
254.878	396
265.178	338
275.463	320
285.734	284
295.992	252
306.236	226
316.467	254
326.684	236
336.887	226
347.075	226
357.251	214
367.413	226
377.562	260
387.697	250
397.819	290
407.926	356
418.02	298
428.101	246
438.169	232
448.223	212
458.264	192
468.291	178
478.306	194
488.307	168
498.294	184
508.269	198
518.23	184
528.177	224
538.113	260
548.034	268
557.942	250
567.838	252
577.72	256
587.589	226
597.446	216
607.289	268
617.119	416
626.936	552
636.741	224
646.533	186
656.313	162
666.078	190
675.831	176
685.571	186
695.299	192
705.014	234
714.716	234
724.406	294
734.082	262
743.746	390
753.398	406
763.037	486
772.664	436
782.278	470
791.879	624
801.467	626
811.044	390
820.608	276
830.16	262
839.699	356
849.226	332
858.741	308
868.243	308
877.731	304
887.209	286
896.674	284
906.128	366
915.569	298
924.997	250
934.414	260
943.818	266
953.211	274
962.59	322
971.958	330
981.314	468
990.659	1162
999.99	4214
1009.31	1604
1018.62	464
1027.91	1186
1037.2	1444
1046.47	490
1055.73	402
1064.98	442
1074.22	446
1083.44	430
1092.65	414
1101.86	416
1111.05	372
1120.22	314
1129.39	286
1138.54	300
1147.69	420
1156.82	960
1165.94	530
1175.05	640
1184.14	1226
1193.23	1122
1202.3	1140
1211.36	746
1220.41	486
1229.45	470
1238.48	386
1247.5	352
1256.5	354
1265.49	368
1274.48	358
1283.45	362
1292.41	388
1301.36	420
1310.29	422
1319.22	498
1328.13	534
1337.04	504
1345.93	424
1354.81	386
1363.68	384
1372.54	392
1381.38	362
1390.22	294
1399.05	282
1407.86	300
1416.66	278
1425.46	286
1434.24	324
1443.01	496
1451.77	630
1460.52	388
1469.25	288
1477.98	290
1486.7	302
1495.4	322
1504.1	288
1512.78	286
1521.45	278
1530.11	278
1538.76	296
1547.41	306
1556.03	310
1564.65	326
1573.26	390
1581.86	764
1590.45	602
1599.02	1228
1607.59	1298
1616.14	490
1624.69	382
1633.22	330
1641.75	340
1650.26	352
1658.76	316
1667.26	288
1675.74	308
1684.21	306
1692.67	320
1701.12	274
1709.56	310
1717.99	298
1726.41	282
1734.82	292
1743.22	296
1751.61	286
1759.99	284
1768.36	300
1776.71	288
1785.06	316
1793.4	302
1801.73	306
1810.04	294
1818.35	330
1826.65	306
1834.94	300
1843.21	308
1851.48	282
1859.74	282
1867.98	310
1876.22	328
1884.45	292
1892.67	320
1900.87	314
1909.07	328
1917.26	328
1925.43	334
1933.6	334
1941.76	328
1949.91	324
1958.05	334
1966.17	320
1974.29	338
1982.4	304
1990.5	326
1998.59	320
2006.67	326
2014.74	324
2022.8	322
2030.85	340
2038.89	342
2046.92	348
2054.94	326
2062.95	342
2070.96	338
2078.95	348
2086.93	344
2094.91	338
2102.87	344
2110.83	358
2118.77	352
2126.71	350
2134.63	322
2142.55	324
2150.46	350
2158.35	342
2166.24	344
2174.12	336
2181.99	346
2189.85	362
2197.7	352
2205.55	346
2213.38	350
2221.2	346
2229.02	352
2236.82	360
2244.62	348
2252.4	360
2260.18	362
2267.95	362
2275.71	360
2283.46	386
2291.2	354
2298.93	366
2306.65	350
2314.37	382
2322.07	370
2329.77	352
2337.45	350
2345.13	374
2352.8	368
2360.46	368
2368.11	378
2375.75	356
2383.38	364
2391.01	378
2398.62	376
2406.23	378
2413.82	356
2421.41	362
2428.99	376
2436.56	364
2444.12	384
2449.79	398