File: Jesse_Dataset_v2/Pure Raman/Polystyrene/633nm/ps-ppo-7jan25-1,0000-map3_Y01_X07.txt
182.393	1122
192.79	996
203.174	1054
213.542	1080
223.897	1124
234.238	920
244.566	594
254.878	434
265.178	412
275.463	372
285.734	366
295.992	316
306.236	292
316.467	306
326.684	282
336.887	316
347.075	284
357.251	282
367.413	266
377.562	298
387.697	320
397.819	338
407.926	398
418.02	346
428.101	286
438.169	270
448.223	256
458.264	220
468.291	232
478.306	220
488.307	234
498.294	228
508.269	244
518.23	244
528.177	238
538.113	290
548.034	306
557.942	290
567.838	276
577.72	284
587.589	240
597.446	248
607.289	324
617.119	450
626.936	560
636.741	256
646.533	204
656.313	208
666.078	206
675.831	196
685.571	204
695.299	210
705.014	244
714.716	266
724.406	326
734.082	332
743.746	400
753.398	432
763.037	484
772.664	434
782.278	496
791.879	692
801.467	660
811.044	436
820.608	320
830.16	306
839.699	394
849.226	360
858.741	308
868.243	342
877.731	338
887.209	316
896.674	312
906.128	384
915.569	350
924.997	286
934.414	294
943.818	316
953.211	306
962.59	326
971.958	386
981.314	484
990.659	1206
999.99	4136
1009.31	1642
1018.62	504
1027.91	1240
1037.2	1520
1046.47	542
1055.73	434
1064.98	482
1074.22	494
1083.44	490
1092.65	474
1101.86	470
1111.05	418
1120.22	352
1129.39	346
1138.54	366
1147.69	488
1156.82	1042
1165.94	568
1175.05	684
1184.14	1244
1193.23	1246
1202.3	1258
1211.36	810
1220.41	570
1229.45	500
1238.48	472
1247.5	446
1256.5	412
1265.49	390
1274.48	418
1283.45	432
1292.41	434
1301.36	496
1310.29	494
1319.22	544
1328.13	622
1337.04	562
1345.93	466
1354.81	438
1363.68	450
1372.54	446
1381.38	412
1390.22	360
1399.05	362
1407.86	354
1416.66	318
1425.46	334
1434.24	410
1443.01	568
1451.77	688
1460.52	442
1469.25	366
1477.98	356
1486.7	328
1495.4	378
1504.1	350
1512.78	352
1521.45	344
1530.11	360
1538.76	350
1547.41	324
1556.03	350
1564.65	406
1573.26	430
1581.86	880
1590.45	682
1599.02	1326
1607.59	1358
1616.14	532
1624.69	424
1633.22	376
1641.75	392
1650.26	432
1658.76	384
1667.26	354
1675.74	360
1684.21	346
1692.67	352
1701.12	356
1709.56	338
1717.99	338
1726.41	336
1734.82	336
1743.22	352
1751.61	344
1759.99	308
1768.36	336
1776.71	340
1785.06	342
1793.4	336
1801.73	354
1810.04	354
1818.35	336
1826.65	344
1834.94	336
1843.21	320
1851.48	330
1859.74	330
1867.98	328
1876.22	322
1884.45	348
1892.67	334
1900.87	324
1909.07	358
1917.26	354
1925.43	352
1933.6	342
1941.76	336
1949.91	352
1958.05	344
1966.17	362
1974.29	360
1982.4	344
1990.5	320
1998.59	344
2006.67	318
2014.74	354
2022.8	338
2030.85	328
2038.89	346
2046.92	352
2054.94	372
2062.95	348
2070.96	354
2078.95	350
2086.93	336
2094.91	330
2102.87	366
2110.83	352
2118.77	352
2126.71	362
2134.63	352
2142.55	364
2150.46	352
2158.35	338
2166.24	352
2174.12	372
2181.99	352
2189.85	366
2197.7	348
2205.55	368
2213.38	346
2221.2	364
2229.02	350
2236.82	352
2244.62	354
2252.4	356
2260.18	368
2267.95	350
2275.71	346
2283.46	356
2291.2	352
2298.93	368
2306.65	380
2314.37	368
2322.07	358
2329.77	344
2337.45	384
2345.13	370
2352.8	374
2360.46	376
2368.11	348
2375.75	360
2383.38	374
2391.01	372
2398.62	380
2406.23	382
2413.82	362
2421.41	390
2428.99	376
2436.56	388
2444.12	390
2449.79	392