File: Jesse_Dataset_v2/Pure Raman/Polystyrene/633nm/ps-ppo-7jan25-1,0000-map3_Y07_X09.txt
182.393	1092
192.79	998
203.174	996
213.542	1106
223.897	1112
234.238	868
244.566	542
254.878	410
265.178	380
275.463	358
285.734	312
295.992	308
306.236	258
316.467	284
326.684	248
336.887	274
347.075	254
357.251	254
367.413	232
377.562	252
387.697	292
397.819	308
407.926	390
418.02	324
428.101	284
438.169	244
448.223	252
458.264	224
468.291	204
478.306	216
488.307	202
498.294	218
508.269	224
518.23	224
528.177	246
538.113	282
548.034	288
557.942	282
567.838	286
577.72	278
587.589	234
597.446	252
607.289	292
617.119	456
626.936	570
636.741	254
646.533	186
656.313	188
666.078	198
675.831	194
685.571	190
695.299	204
705.014	252
714.716	238
724.406	334
734.082	304
743.746	410
753.398	464
763.037	496
772.664	452
782.278	458
791.879	672
801.467	688
811.044	426
820.608	320
830.16	308
839.699	360
849.226	370
858.741	344
868.243	336
877.731	314
887.209	316
896.674	326
906.128	388
915.569	326
924.997	278
934.414	282
943.818	290
953.211	296
962.59	340
971.958	366
981.314	474
990.659	1174
999.99	4274
1009.31	1608
1018.62	492
1027.91	1238
1037.2	1448
1046.47	516
1055.73	456
1064.98	456
1074.22	478
1083.44	458
1092.65	456
1101.86	464
1111.05	390
1120.22	342
1129.39	288
1138.54	330
1147.69	454
1156.82	1010
1165.94	566
1175.05	684
1184.14	1260
1193.23	1180
1202.3	1220
1211.36	766
1220.41	546
1229.45	444
1238.48	408
1247.5	404
1256.5	396
1265.49	378
1274.48	396
1283.45	376
1292.41	408
1301.36	440
1310.29	458
1319.22	518
1328.13	558
1337.04	546
1345.93	440
1354.81	428
1363.68	422
1372.54	410
1381.38	374
1390.22	322
1399.05	310
1407.86	326
1416.66	298
1425.46	316
1434.24	364
1443.01	516
1451.77	640
1460.52	418
1469.25	332
1477.98	322
1486.7	332
1495.4	340
1504.1	334
1512.78	294
1521.45	294
1530.11	302
1538.76	324
1547.41	322
1556.03	314
1564.65	350
1573.26	404
1581.86	854
1590.45	622
1599.02	1300
1607.59	1324
1616.14	482
1624.69	390
1633.22	354
1641.75	352
1650.26	360
1658.76	324
1667.26	342
1675.74	326
1684.21	340
1692.67	328
1701.12	298
1709.56	314
1717.99	318
1726.41	316
1734.82	316
1743.22	310
1751.61	314
1759.99	308
1768.36	316
1776.71	318
1785.06	308
1793.4	308
1801.73	294
1810.04	302
1818.35	310
1826.65	316
1834.94	312
1843.21	310
1851.48	324
1859.74	310
1867.98	340
1876.22	320
1884.45	316
1892.67	322
1900.87	316
1909.07	314
1917.26	326
1925.43	334
1933.6	332
1941.76	310
1949.91	330
1958.05	322
1966.17	314
1974.29	334
1982.4	314
1990.5	342
1998.59	304
2006.67	346
2014.74	336
2022.8	338
2030.85	346
2038.89	350
2046.92	334
2054.94	346
2062.95	334
2070.96	344
2078.95	356
2086.93	354
2094.91	330
2102.87	336
2110.83	350
2118.77	334
2126.71	334
2134.63	350
2142.55	340
2150.46	344
2158.35	344
2166.24	342
2174.12	350
2181.99	358
2189.85	348
2197.7	326
2205.55	352
2213.38	356
2221.2	358
2229.02	326
2236.82	340
2244.62	354
2252.4	344
2260.18	352
2267.95	326
2275.71	336
2283.46	336
2291.2	348
2298.93	368
2306.65	352
2314.37	356
2322.07	360
2329.77	352
2337.45	370
2345.13	368
2352.8	376
2360.46	354
2368.11	364
2375.75	366
2383.38	362
2391.01	370
2398.62	360
2406.23	360
2413.82	360
2421.41	368
2428.99	374
2436.56	356
2444.12	382
2449.79	386