File: Jesse_Dataset_v2/Pure Raman/Polystyrene/633nm/ps-ppo-7jan25-1,0000-map3_Y10_X03.txt
182.393	1030
192.79	950
203.174	922
213.542	1052
223.897	1050
234.238	802
244.566	528
254.878	378
265.178	342
275.463	308
285.734	318
295.992	242
306.236	242
316.467	232
326.684	224
336.887	226
347.075	220
357.251	204
367.413	228
377.562	218
387.697	262
397.819	286
407.926	340
418.02	264
428.101	236
438.169	224
448.223	196
458.264	184
468.291	174
478.306	176
488.307	172
498.294	184
508.269	176
518.23	202
528.177	208
538.113	248
548.034	256
557.942	272
567.838	244
577.72	270
587.589	198
597.446	206
607.289	248
617.119	428
626.936	506
636.741	220
646.533	180
656.313	152
666.078	180
675.831	156
685.571	160
695.299	164
705.014	204
714.716	208
724.406	300
734.082	260
743.746	382
753.398	404
763.037	482
772.664	428
782.278	470
791.879	674
801.467	612
811.044	400
820.608	286
830.16	264
839.699	340
849.226	338
858.741	282
868.243	300
877.731	266
887.209	270
896.674	272
906.128	346
915.569	294
924.997	248
934.414	246
943.818	246
953.211	274
962.59	292
971.958	316
981.314	448
990.659	1162
999.99	4274
1009.31	1524
1018.62	472
1027.91	1188
1037.2	1430
1046.47	472
1055.73	384
1064.98	444
1074.22	428
1083.44	408
1092.65	412
1101.86	402
1111.05	362
1120.22	312
1129.39	258
1138.54	282
1147.69	402
1156.82	1000
1165.94	514
1175.05	610
1184.14	1188
1193.23	1138
1202.3	1174
1211.36	704
1220.41	476
1229.45	430
1238.48	392
1247.5	358
1256.5	352
1265.49	346
1274.48	342
1283.45	350
1292.41	350
1301.36	396
1310.29	400
1319.22	454
1328.13	486
1337.04	470
1345.93	378
1354.81	362
1363.68	382
1372.54	374
1381.38	328
1390.22	276
1399.05	264
1407.86	278
1416.66	266
1425.46	254
1434.24	310
1443.01	516
1451.77	588
1460.52	376
1469.25	278
1477.98	262
1486.7	274
1495.4	308
1504.1	274
1512.78	262
1521.45	262
1530.11	254
1538.76	274
1547.41	266
1556.03	296
1564.65	294
1573.26	364
1581.86	822
1590.45	606
1599.02	1236
1607.59	1300
1616.14	480
1624.69	346
1633.22	332
1641.75	326
1650.26	332
1658.76	304
1667.26	280
1675.74	274
1684.21	258
1692.67	280
1701.12	254
1709.56	258
1717.99	264
1726.41	274
1734.82	296
1743.22	266
1751.61	270
1759.99	270
1768.36	262
1776.71	264
1785.06	262
1793.4	284
1801.73	292
1810.04	286
1818.35	288
1826.65	274
1834.94	288
1843.21	280
1851.48	278
1859.74	260
1867.98	282
1876.22	256
1884.45	288
1892.67	290
1900.87	274
1909.07	274
1917.26	298
1925.43	290
1933.6	304
1941.76	298
1949.91	312
1958.05	306
1966.17	298
1974.29	306
1982.4	290
1990.5	290
1998.59	308
2006.67	306
2014.74	270
2022.8	308
2030.85	312
2038.89	300
2046.92	288
2054.94	312
2062.95	306
2070.96	312
2078.95	312
2086.93	304
2094.91	308
2102.87	324
2110.83	312
2118.77	298
2126.71	314
2134.63	316
2142.55	324
2150.46	314
2158.35	342
2166.24	306
2174.12	312
2181.99	304
2189.85	318
2197.7	340
2205.55	318
2213.38	328
2221.2	324
2229.02	312
2236.82	308
2244.62	326
2252.4	320
2260.18	304
2267.95	340
2275.71	336
2283.46	310
2291.2	324
2298.93	322
2306.65	316
2314.37	350
2322.07	348
2329.77	328
2337.45	342
2345.13	338
2352.8	340
2360.46	350
2368.11	342
2375.75	330
2383.38	340
2391.01	344
2398.62	320
2406.23	334
2413.82	332
2421.41	328
2428.99	334
2436.56	326
2444.12	356
2449.79	360