File: Jesse_Dataset_v2/Pure Raman/Polystyrene/633nm/ps-ppo-7jan25-1,0000-map3_Y03_X09.txt
182.393	1048
192.79	978
203.174	992
213.542	1060
223.897	1078
234.238	856
244.566	534
254.878	390
265.178	348
275.463	338
285.734	276
295.992	272
306.236	244
316.467	254
326.684	242
336.887	250
347.075	236
357.251	224
367.413	228
377.562	230
387.697	268
397.819	304
407.926	356
418.02	306
428.101	246
438.169	234
448.223	222
458.264	200
468.291	184
478.306	186
488.307	176
498.294	194
508.269	208
518.23	216
528.177	208
538.113	260
548.034	254
557.942	250
567.838	234
577.72	266
587.589	212
597.446	214
607.289	280
617.119	438
626.936	522
636.741	222
646.533	178
656.313	162
666.078	176
675.831	170
685.571	170
695.299	178
705.014	216
714.716	220
724.406	310
734.082	292
743.746	388
753.398	408
763.037	480
772.664	414
782.278	446
791.879	630
801.467	632
811.044	382
820.608	300
830.16	276
839.699	346
849.226	338
858.741	328
868.243	282
877.731	308
887.209	274
896.674	308
906.128	362
915.569	286
924.997	276
934.414	282
943.818	266
953.211	290
962.59	318
971.958	354
981.314	478
990.659	1172
999.99	4216
1009.31	1576
1018.62	484
1027.91	1204
1037.2	1436
1046.47	498
1055.73	412
1064.98	420
1074.22	444
1083.44	428
1092.65	420
1101.86	434
1111.05	354
1120.22	324
1129.39	278
1138.54	296
1147.69	440
1156.82	974
1165.94	514
1175.05	658
1184.14	1208
1193.23	1166
1202.3	1156
1211.36	728
1220.41	502
1229.45	430
1238.48	390
1247.5	374
1256.5	350
1265.49	348
1274.48	348
1283.45	344
1292.41	364
1301.36	420
1310.29	428
1319.22	480
1328.13	552
1337.04	504
1345.93	410
1354.81	376
1363.68	382
1372.54	380
1381.38	364
1390.22	274
1399.05	280
1407.86	278
1416.66	272
1425.46	272
1434.24	326
1443.01	492
1451.77	606
1460.52	398
1469.25	298
1477.98	284
1486.7	286
1495.4	304
1504.1	270
1512.78	274
1521.45	262
1530.11	278
1538.76	274
1547.41	290
1556.03	294
1564.65	326
1573.26	388
1581.86	800
1590.45	604
1599.02	1236
1607.59	1292
1616.14	486
1624.69	364
1633.22	310
1641.75	318
1650.26	358
1658.76	300
1667.26	296
1675.74	290
1684.21	296
1692.67	290
1701.12	288
1709.56	298
1717.99	272
1726.41	274
1734.82	280
1743.22	286
1751.61	292
1759.99	288
1768.36	276
1776.71	284
1785.06	276
1793.4	300
1801.73	298
1810.04	290
1818.35	292
1826.65	290
1834.94	290
1843.21	308
1851.48	294
1859.74	274
1867.98	298
1876.22	290
1884.45	288
1892.67	292
1900.87	308
1909.07	314
1917.26	316
1925.43	298
1933.6	310
1941.76	306
1949.91	324
1958.05	314
1966.17	302
1974.29	312
1982.4	304
1990.5	296
1998.59	324
2006.67	308
2014.74	326
2022.8	318
2030.85	308
2038.89	310
2046.92	314
2054.94	318
2062.95	334
2070.96	312
2078.95	338
2086.93	326
2094.91	316
2102.87	320
2110.83	326
2118.77	314
2126.71	324
2134.63	336
2142.55	346
2150.46	312
2158.35	326
2166.24	334
2174.12	336
2181.99	326
2189.85	348
2197.7	334
2205.55	346
2213.38	346
2221.2	332
2229.02	334
2236.82	332
2244.62	332
2252.4	352
2260.18	344
2267.95	344
2275.71	358
2283.46	338
2291.2	326
2298.93	346
2306.65	354
2314.37	346
2322.07	354
2329.77	364
2337.45	338
2345.13	360
2352.8	350
2360.46	342
2368.11	350
2375.75	382
2383.38	344
2391.01	342
2398.62	360
2406.23	328
2413.82	360
2421.41	350
2428.99	364
2436.56	352
2444.12	372
2449.79	356