File: Jesse_Dataset_v2/Pure Raman/Polystyrene/633nm/ps-ppo-7jan25-1,0000-map3_Y09_X09.txt
182.393	1008
192.79	944
203.174	934
213.542	1048
223.897	1094
234.238	822
244.566	500
254.878	378
265.178	352
275.463	296
285.734	290
295.992	234
306.236	222
316.467	230
326.684	250
336.887	228
347.075	226
357.251	220
367.413	218
377.562	224
387.697	258
397.819	284
407.926	332
418.02	296
428.101	238
438.169	218
448.223	214
458.264	188
468.291	186
478.306	176
488.307	178
498.294	198
508.269	208
518.23	176
528.177	202
538.113	242
548.034	252
557.942	244
567.838	244
577.72	246
587.589	218
597.446	212
607.289	256
617.119	424
626.936	514
636.741	230
646.533	188
656.313	170
666.078	180
675.831	178
685.571	158
695.299	176
705.014	210
714.716	200
724.406	282
734.082	276
743.746	388
753.398	440
763.037	512
772.664	418
782.278	446
791.879	666
801.467	618
811.044	390
820.608	312
830.16	260
839.699	332
849.226	342
858.741	296
868.243	302
877.731	290
887.209	274
896.674	288
906.128	344
915.569	304
924.997	254
934.414	242
943.818	258
953.211	260
962.59	290
971.958	338
981.314	460
990.659	1174
999.99	4260
1009.31	1560
1018.62	480
1027.91	1174
1037.2	1430
1046.47	476
1055.73	378
1064.98	402
1074.22	440
1083.44	406
1092.65	412
1101.86	420
1111.05	356
1120.22	314
1129.39	272
1138.54	280
1147.69	412
1156.82	976
1165.94	506
1175.05	626
1184.14	1232
1193.23	1140
1202.3	1146
1211.36	734
1220.41	488
1229.45	452
1238.48	370
1247.5	378
1256.5	364
1265.49	366
1274.48	354
1283.45	368
1292.41	372
1301.36	404
1310.29	422
1319.22	476
1328.13	518
1337.04	478
1345.93	376
1354.81	372
1363.68	366
1372.54	388
1381.38	334
1390.22	276
1399.05	270
1407.86	272
1416.66	260
1425.46	274
1434.24	332
1443.01	476
1451.77	608
1460.52	386
1469.25	276
1477.98	262
1486.7	262
1495.4	294
1504.1	258
1512.78	242
1521.45	264
1530.11	272
1538.76	270
1547.41	280
1556.03	302
1564.65	318
1573.26	362
1581.86	836
1590.45	586
1599.02	1272
1607.59	1302
1616.14	470
1624.69	362
1633.22	336
1641.75	320
1650.26	324
1658.76	306
1667.26	306
1675.74	282
1684.21	288
1692.67	288
1701.12	278
1709.56	292
1717.99	274
1726.41	282
1734.82	278
1743.22	278
1751.61	286
1759.99	292
1768.36	274
1776.71	302
1785.06	304
1793.4	294
1801.73	284
1810.04	302
1818.35	302
1826.65	292
1834.94	278
1843.21	308
1851.48	290
1859.74	286
1867.98	308
1876.22	278
1884.45	292
1892.67	286
1900.87	302
1909.07	304
1917.26	316
1925.43	302
1933.6	316
1941.76	310
1949.91	324
1958.05	318
1966.17	312
1974.29	294
1982.4	306
1990.5	314
1998.59	318
2006.67	314
2014.74	310
2022.8	312
2030.85	318
2038.89	330
2046.92	322
2054.94	286
2062.95	342
2070.96	320
2078.95	312
2086.93	330
2094.91	330
2102.87	310
2110.83	308
2118.77	334
2126.71	330
2134.63	338
2142.55	330
2150.46	318
2158.35	334
2166.24	318
2174.12	348
2181.99	324
2189.85	342
2197.7	348
2205.55	324
2213.38	324
2221.2	320
2229.02	322
2236.82	310
2244.62	322
2252.4	334
2260.18	342
2267.95	330
2275.71	332
2283.46	320
2291.2	358
2298.93	334
2306.65	346
2314.37	336
2322.07	346
2329.77	334
2337.45	352
2345.13	348
2352.8	342
2360.46	356
2368.11	344
2375.75	364
2383.38	334
2391.01	350
2398.62	354
2406.23	358
2413.82	384
2421.41	346
2428.99	352
2436.56	354
2444.12	374
2449.79	356