File: Jesse_Dataset_v2/Pure Raman/Polystyrene/633nm/ps-ppo-7jan25-1,0000-map3_Y04_X07.txt
182.393	1024
192.79	954
203.174	946
213.542	1032
223.897	1070
234.238	854
244.566	524
254.878	406
265.178	342
275.463	344
285.734	306
295.992	244
306.236	244
316.467	236
326.684	238
336.887	248
347.075	236
357.251	226
367.413	236
377.562	242
387.697	278
397.819	280
407.926	344
418.02	298
428.101	258
438.169	230
448.223	224
458.264	184
468.291	200
478.306	188
488.307	186
498.294	186
508.269	212
518.23	202
528.177	234
538.113	266
548.034	280
557.942	272
567.838	268
577.72	264
587.589	228
597.446	220
607.289	280
617.119	454
626.936	536
636.741	234
646.533	192
656.313	182
666.078	182
675.831	196
685.571	204
695.299	210
705.014	246
714.716	248
724.406	324
734.082	294
743.746	394
753.398	462
763.037	508
772.664	452
782.278	478
791.879	668
801.467	646
811.044	408
820.608	314
830.16	288
839.699	368
849.226	352
858.741	308
868.243	312
877.731	326
887.209	286
896.674	306
906.128	398
915.569	330
924.997	280
934.414	286
943.818	280
953.211	288
962.59	330
971.958	350
981.314	480
990.659	1228
999.99	4202
1009.31	1566
1018.62	472
1027.91	1206
1037.2	1470
1046.47	478
1055.73	400
1064.98	438
1074.22	440
1083.44	428
1092.65	418
1101.86	440
1111.05	340
1120.22	324
1129.39	284
1138.54	292
1147.69	398
1156.82	940
1165.94	528
1175.05	626
1184.14	1214
1193.23	1136
1202.3	1166
1211.36	714
1220.41	486
1229.45	438
1238.48	368
1247.5	372
1256.5	370
1265.49	342
1274.48	336
1283.45	346
1292.41	372
1301.36	406
1310.29	432
1319.22	488
1328.13	538
1337.04	486
1345.93	384
1354.81	358
1363.68	364
1372.54	366
1381.38	348
1390.22	264
1399.05	272
1407.86	258
1416.66	258
1425.46	268
1434.24	320
1443.01	502
1451.77	606
1460.52	390
1469.25	280
1477.98	284
1486.7	266
1495.4	292
1504.1	270
1512.78	274
1521.45	276
1530.11	268
1538.76	246
1547.41	262
1556.03	290
1564.65	298
1573.26	374
1581.86	776
1590.45	582
1599.02	1214
1607.59	1268
1616.14	474
1624.69	362
1633.22	320
1641.75	322
1650.26	332
1658.76	282
1667.26	272
1675.74	294
1684.21	270
1692.67	280
1701.12	286
1709.56	278
1717.99	262
1726.41	266
1734.82	286
1743.22	284
1751.61	286
1759.99	294
1768.36	266
1776.71	272
1785.06	292
1793.4	284
1801.73	288
1810.04	274
1818.35	300
1826.65	324
1834.94	284
1843.21	270
1851.48	276
1859.74	282
1867.98	288
1876.22	290
1884.45	292
1892.67	284
1900.87	306
1909.07	308
1917.26	290
1925.43	306
1933.6	310
1941.76	292
1949.91	306
1958.05	298
1966.17	304
1974.29	322
1982.4	302
1990.5	310
1998.59	320
2006.67	314
2014.74	318
2022.8	308
2030.85	334
2038.89	320
2046.92	338
2054.94	320
2062.95	310
2070.96	324
2078.95	332
2086.93	318
2094.91	330
2102.87	318
2110.83	326
2118.77	330
2126.71	326
2134.63	346
2142.55	332
2150.46	336
2158.35	326
2166.24	318
2174.12	326
2181.99	320
2189.85	336
2197.7	338
2205.55	338
2213.38	320
2221.2	336
2229.02	332
2236.82	352
2244.62	332
2252.4	340
2260.18	334
2267.95	348
2275.71	346
2283.46	358
2291.2	320
2298.93	350
2306.65	346
2314.37	366
2322.07	356
2329.77	356
2337.45	354
2345.13	354
2352.8	326
2360.46	346
2368.11	350
2375.75	364
2383.38	338
2391.01	352
2398.62	358
2406.23	354
2413.82	364
2421.41	360
2428.99	356
2436.56	364
2444.12	372
2449.79	370