File: Jesse_Dataset_v2/Pure Raman/Polystyrene/633nm/ps-ppo-7jan25-1,0000-map3_Y10_X04.txt
182.393	1018
192.79	982
203.174	946
213.542	1060
223.897	1066
234.238	814
244.566	528
254.878	380
265.178	326
275.463	308
285.734	278
295.992	236
306.236	230
316.467	244
326.684	236
336.887	234
347.075	204
357.251	218
367.413	210
377.562	232
387.697	278
397.819	292
407.926	344
418.02	274
428.101	242
438.169	210
448.223	196
458.264	186
468.291	194
478.306	188
488.307	174
498.294	176
508.269	192
518.23	192
528.177	198
538.113	236
548.034	246
557.942	236
567.838	248
577.72	232
587.589	204
597.446	198
607.289	250
617.119	410
626.936	504
636.741	234
646.533	182
656.313	164
666.078	166
675.831	158
685.571	180
695.299	190
705.014	220
714.716	198
724.406	282
734.082	260
743.746	378
753.398	408
763.037	478
772.664	416
782.278	422
791.879	648
801.467	608
811.044	396
820.608	298
830.16	256
839.699	332
849.226	358
858.741	284
868.243	278
877.731	280
887.209	256
896.674	282
906.128	360
915.569	316
924.997	254
934.414	234
943.818	276
953.211	250
962.59	290
971.958	354
981.314	460
990.659	1166
999.99	4194
1009.31	1558
1018.62	476
1027.91	1178
1037.2	1374
1046.47	460
1055.73	414
1064.98	400
1074.22	426
1083.44	430
1092.65	408
1101.86	428
1111.05	338
1120.22	280
1129.39	274
1138.54	304
1147.69	386
1156.82	960
1165.94	504
1175.05	610
1184.14	1184
1193.23	1112
1202.3	1154
1211.36	710
1220.41	482
1229.45	438
1238.48	374
1247.5	348
1256.5	358
1265.49	328
1274.48	326
1283.45	352
1292.41	354
1301.36	400
1310.29	424
1319.22	448
1328.13	510
1337.04	470
1345.93	384
1354.81	350
1363.68	356
1372.54	360
1381.38	334
1390.22	268
1399.05	274
1407.86	268
1416.66	244
1425.46	280
1434.24	306
1443.01	468
1451.77	594
1460.52	352
1469.25	288
1477.98	268
1486.7	252
1495.4	288
1504.1	264
1512.78	232
1521.45	260
1530.11	264
1538.76	240
1547.41	256
1556.03	294
1564.65	302
1573.26	368
1581.86	780
1590.45	628
1599.02	1238
1607.59	1296
1616.14	458
1624.69	340
1633.22	302
1641.75	278
1650.26	318
1658.76	280
1667.26	244
1675.74	276
1684.21	278
1692.67	284
1701.12	274
1709.56	270
1717.99	264
1726.41	268
1734.82	260
1743.22	306
1751.61	292
1759.99	246
1768.36	274
1776.71	284
1785.06	280
1793.4	286
1801.73	270
1810.04	290
1818.35	258
1826.65	276
1834.94	270
1843.21	304
1851.48	280
1859.74	280
1867.98	292
1876.22	288
1884.45	298
1892.67	282
1900.87	298
1909.07	286
1917.26	304
1925.43	284
1933.6	308
1941.76	306
1949.91	280
1958.05	282
1966.17	302
1974.29	302
1982.4	310
1990.5	278
1998.59	300
2006.67	298
2014.74	312
2022.8	300
2030.85	300
2038.89	306
2046.92	330
2054.94	306
2062.95	302
2070.96	300
2078.95	300
2086.93	328
2094.91	310
2102.87	322
2110.83	314
2118.77	314
2126.71	304
2134.63	308
2142.55	332
2150.46	312
2158.35	316
2166.24	306
2174.12	348
2181.99	326
2189.85	312
2197.7	322
2205.55	330
2213.38	318
2221.2	318
2229.02	328
2236.82	328
2244.62	308
2252.4	322
2260.18	336
2267.95	322
2275.71	326
2283.46	342
2291.2	328
2298.93	340
2306.65	344
2314.37	330
2322.07	334
2329.77	338
2337.45	328
2345.13	328
2352.8	334
2360.46	316
2368.11	332
2375.75	308
2383.38	334
2391.01	336
2398.62	346
2406.23	334
2413.82	362
2421.41	350
2428.99	340
2436.56	338
2444.12	350
2449.79	354