File: Jesse_Dataset_v2/Pure Raman/Polystyrene/633nm/ps-ppo-7jan25-1,0000-map3_Y04_X03.txt
182.393	1068
192.79	1030
203.174	1022
213.542	1082
223.897	1136
234.238	870
244.566	574
254.878	428
265.178	378
275.463	348
285.734	322
295.992	290
306.236	288
316.467	286
326.684	272
336.887	254
347.075	256
357.251	258
367.413	252
377.562	272
387.697	306
397.819	328
407.926	386
418.02	332
428.101	290
438.169	260
448.223	230
458.264	230
468.291	220
478.306	210
488.307	202
498.294	224
508.269	212
518.23	224
528.177	240
538.113	272
548.034	292
557.942	268
567.838	284
577.72	280
587.589	232
597.446	246
607.289	286
617.119	450
626.936	570
636.741	232
646.533	206
656.313	174
666.078	182
675.831	198
685.571	202
695.299	196
705.014	254
714.716	234
724.406	340
734.082	302
743.746	406
753.398	448
763.037	484
772.664	436
782.278	482
791.879	676
801.467	644
811.044	420
820.608	332
830.16	290
839.699	364
849.226	376
858.741	332
868.243	318
877.731	348
887.209	330
896.674	336
906.128	392
915.569	338
924.997	284
934.414	304
943.818	294
953.211	312
962.59	346
971.958	394
981.314	446
990.659	1202
999.99	4234
1009.31	1628
1018.62	514
1027.91	1256
1037.2	1462
1046.47	522
1055.73	452
1064.98	480
1074.22	496
1083.44	486
1092.65	480
1101.86	450
1111.05	406
1120.22	334
1129.39	310
1138.54	330
1147.69	452
1156.82	1016
1165.94	586
1175.05	662
1184.14	1256
1193.23	1158
1202.3	1194
1211.36	780
1220.41	536
1229.45	472
1238.48	410
1247.5	396
1256.5	384
1265.49	376
1274.48	402
1283.45	388
1292.41	406
1301.36	442
1310.29	452
1319.22	488
1328.13	570
1337.04	554
1345.93	428
1354.81	396
1363.68	414
1372.54	410
1381.38	378
1390.22	320
1399.05	300
1407.86	296
1416.66	278
1425.46	298
1434.24	348
1443.01	536
1451.77	624
1460.52	384
1469.25	318
1477.98	310
1486.7	290
1495.4	316
1504.1	286
1512.78	276
1521.45	276
1530.11	284
1538.76	292
1547.41	276
1556.03	334
1564.65	334
1573.26	376
1581.86	810
1590.45	608
1599.02	1228
1607.59	1344
1616.14	506
1624.69	374
1633.22	376
1641.75	350
1650.26	358
1658.76	304
1667.26	312
1675.74	294
1684.21	318
1692.67	318
1701.12	290
1709.56	306
1717.99	282
1726.41	282
1734.82	296
1743.22	298
1751.61	308
1759.99	298
1768.36	292
1776.71	324
1785.06	320
1793.4	300
1801.73	310
1810.04	338
1818.35	318
1826.65	324
1834.94	304
1843.21	324
1851.48	314
1859.74	314
1867.98	306
1876.22	318
1884.45	320
1892.67	312
1900.87	330
1909.07	322
1917.26	344
1925.43	332
1933.6	334
1941.76	330
1949.91	330
1958.05	334
1966.17	322
1974.29	304
1982.4	352
1990.5	330
1998.59	310
2006.67	328
2014.74	330
2022.8	354
2030.85	338
2038.89	328
2046.92	350
2054.94	338
2062.95	352
2070.96	342
2078.95	340
2086.93	352
2094.91	338
2102.87	336
2110.83	346
2118.77	344
2126.71	354
2134.63	344
2142.55	348
2150.46	356
2158.35	356
2166.24	356
2174.12	354
2181.99	350
2189.85	344
2197.7	346
2205.55	330
2213.38	358
2221.2	360
2229.02	344
2236.82	338
2244.62	336
2252.4	344
2260.18	342
2267.95	350
2275.71	334
2283.46	344
2291.2	356
2298.93	374
2306.65	362
2314.37	360
2322.07	346
2329.77	352
2337.45	358
2345.13	356
2352.8	356
2360.46	360
2368.11	358
2375.75	346
2383.38	360
2391.01	356
2398.62	360
2406.23	356
2413.82	346
2421.41	366
2428.99	356
2436.56	370
2444.12	390
2449.79	366