File: Jesse_Dataset_v2/Pure Raman/Polystyrene/633nm/ps-ppo-7jan25-1,0000-map3_Y02_X09.txt
182.393	1146
192.79	1062
203.174	1036
213.542	1178
223.897	1188
234.238	948
244.566	610
254.878	466
265.178	462
275.463	416
285.734	372
295.992	364
306.236	338
316.467	334
326.684	354
336.887	354
347.075	330
357.251	322
367.413	348
377.562	348
387.697	358
397.819	386
407.926	450
418.02	398
428.101	364
438.169	324
448.223	300
458.264	288
468.291	268
478.306	284
488.307	282
498.294	268
508.269	280
518.23	300
528.177	290
538.113	346
548.034	336
557.942	348
567.838	348
577.72	342
587.589	298
597.446	308
607.289	360
617.119	512
626.936	612
636.741	304
646.533	258
656.313	248
666.078	238
675.831	240
685.571	250
695.299	254
705.014	282
714.716	280
724.406	354
734.082	348
743.746	454
753.398	492
763.037	550
772.664	482
782.278	528
791.879	702
801.467	654
811.044	458
820.608	318
830.16	310
839.699	388
849.226	390
858.741	326
868.243	330
877.731	322
887.209	298
896.674	320
906.128	396
915.569	356
924.997	304
934.414	288
943.818	284
953.211	312
962.59	334
971.958	364
981.314	510
990.659	1200
999.99	4228
1009.31	1570
1018.62	486
1027.91	1218
1037.2	1462
1046.47	530
1055.73	450
1064.98	414
1074.22	472
1083.44	454
1092.65	458
1101.86	458
1111.05	398
1120.22	330
1129.39	304
1138.54	316
1147.69	448
1156.82	1006
1165.94	538
1175.05	638
1184.14	1230
1193.23	1164
1202.3	1154
1211.36	774
1220.41	548
1229.45	482
1238.48	410
1247.5	396
1256.5	390
1265.49	388
1274.48	374
1283.45	394
1292.41	402
1301.36	446
1310.29	458
1319.22	522
1328.13	564
1337.04	544
1345.93	466
1354.81	402
1363.68	402
1372.54	450
1381.38	400
1390.22	308
1399.05	296
1407.86	324
1416.66	296
1425.46	316
1434.24	400
1443.01	524
1451.77	664
1460.52	456
1469.25	348
1477.98	318
1486.7	304
1495.4	352
1504.1	312
1512.78	288
1521.45	324
1530.11	334
1538.76	340
1547.41	332
1556.03	334
1564.65	360
1573.26	418
1581.86	842
1590.45	652
1599.02	1230
1607.59	1372
1616.14	540
1624.69	420
1633.22	380
1641.75	390
1650.26	366
1658.76	334
1667.26	352
1675.74	336
1684.21	332
1692.67	334
1701.12	336
1709.56	316
1717.99	320
1726.41	340
1734.82	316
1743.22	334
1751.61	330
1759.99	332
1768.36	326
1776.71	312
1785.06	316
1793.4	332
1801.73	336
1810.04	332
1818.35	326
1826.65	322
1834.94	348
1843.21	340
1851.48	308
1859.74	344
1867.98	332
1876.22	336
1884.45	334
1892.67	324
1900.87	322
1909.07	324
1917.26	370
1925.43	352
1933.6	370
1941.76	332
1949.91	350
1958.05	336
1966.17	342
1974.29	338
1982.4	350
1990.5	330
1998.59	352
2006.67	340
2014.74	332
2022.8	350
2030.85	358
2038.89	332
2046.92	334
2054.94	354
2062.95	342
2070.96	356
2078.95	364
2086.93	338
2094.91	370
2102.87	340
2110.83	342
2118.77	352
2126.71	354
2134.63	354
2142.55	346
2150.46	342
2158.35	352
2166.24	346
2174.12	356
2181.99	354
2189.85	348
2197.7	356
2205.55	360
2213.38	352
2221.2	346
2229.02	364
2236.82	352
2244.62	370
2252.4	344
2260.18	358
2267.95	344
2275.71	352
2283.46	352
2291.2	370
2298.93	336
2306.65	372
2314.37	376
2322.07	378
2329.77	344
2337.45	372
2345.13	358
2352.8	350
2360.46	396
2368.11	348
2375.75	372
2383.38	372
2391.01	360
2398.62	350
2406.23	368
2413.82	368
2421.41	376
2428.99	378
2436.56	360
2444.12	342
2449.79	378