File: Jesse_Dataset_v2/Pure Raman/Polystyrene/633nm/ps-ppo-7jan25-1,0000-map3_Y01_X08.txt
182.393	1040
192.79	948
203.174	934
213.542	1046
223.897	1068
234.238	848
244.566	532
254.878	384
265.178	356
275.463	328
285.734	286
295.992	248
306.236	234
316.467	250
326.684	242
336.887	240
347.075	238
357.251	222
367.413	240
377.562	262
387.697	282
397.819	294
407.926	356
418.02	298
428.101	244
438.169	232
448.223	222
458.264	202
468.291	188
478.306	194
488.307	176
498.294	198
508.269	200
518.23	198
528.177	222
538.113	258
548.034	254
557.942	252
567.838	256
577.72	288
587.589	208
597.446	208
607.289	276
617.119	410
626.936	520
636.741	228
646.533	182
656.313	162
666.078	164
675.831	174
685.571	166
695.299	174
705.014	216
714.716	226
724.406	284
734.082	280
743.746	392
753.398	414
763.037	484
772.664	430
782.278	452
791.879	634
801.467	618
811.044	380
820.608	300
830.16	264
839.699	336
849.226	308
858.741	308
868.243	290
877.731	290
887.209	288
896.674	274
906.128	358
915.569	300
924.997	244
934.414	240
943.818	270
953.211	268
962.59	314
971.958	318
981.314	458
990.659	1138
999.99	4130
1009.31	1556
1018.62	466
1027.91	1186
1037.2	1414
1046.47	498
1055.73	388
1064.98	414
1074.22	450
1083.44	422
1092.65	412
1101.86	416
1111.05	338
1120.22	304
1129.39	270
1138.54	284
1147.69	412
1156.82	1008
1165.94	532
1175.05	632
1184.14	1192
1193.23	1136
1202.3	1156
1211.36	744
1220.41	478
1229.45	430
1238.48	382
1247.5	370
1256.5	360
1265.49	360
1274.48	346
1283.45	348
1292.41	394
1301.36	406
1310.29	428
1319.22	464
1328.13	538
1337.04	512
1345.93	410
1354.81	388
1363.68	386
1372.54	402
1381.38	362
1390.22	294
1399.05	294
1407.86	300
1416.66	266
1425.46	292
1434.24	344
1443.01	500
1451.77	616
1460.52	390
1469.25	316
1477.98	300
1486.7	276
1495.4	324
1504.1	278
1512.78	278
1521.45	284
1530.11	268
1538.76	276
1547.41	304
1556.03	302
1564.65	340
1573.26	378
1581.86	812
1590.45	610
1599.02	1186
1607.59	1296
1616.14	482
1624.69	348
1633.22	352
1641.75	336
1650.26	358
1658.76	314
1667.26	278
1675.74	314
1684.21	306
1692.67	302
1701.12	294
1709.56	290
1717.99	294
1726.41	282
1734.82	282
1743.22	308
1751.61	310
1759.99	274
1768.36	302
1776.71	286
1785.06	284
1793.4	290
1801.73	296
1810.04	312
1818.35	296
1826.65	316
1834.94	298
1843.21	304
1851.48	312
1859.74	292
1867.98	306
1876.22	306
1884.45	326
1892.67	310
1900.87	296
1909.07	340
1917.26	306
1925.43	314
1933.6	320
1941.76	326
1949.91	318
1958.05	308
1966.17	312
1974.29	324
1982.4	318
1990.5	298
1998.59	320
2006.67	288
2014.74	316
2022.8	328
2030.85	332
2038.89	328
2046.92	336
2054.94	334
2062.95	326
2070.96	344
2078.95	320
2086.93	340
2094.91	326
2102.87	342
2110.83	338
2118.77	356
2126.71	330
2134.63	320
2142.55	346
2150.46	342
2158.35	344
2166.24	346
2174.12	352
2181.99	334
2189.85	328
2197.7	346
2205.55	348
2213.38	334
2221.2	346
2229.02	342
2236.82	348
2244.62	342
2252.4	336
2260.18	344
2267.95	358
2275.71	360
2283.46	356
2291.2	366
2298.93	356
2306.65	360
2314.37	344
2322.07	348
2329.77	358
2337.45	352
2345.13	354
2352.8	352
2360.46	362
2368.11	354
2375.75	358
2383.38	354
2391.01	356
2398.62	364
2406.23	354
2413.82	358
2421.41	380
2428.99	368
2436.56	390
2444.12	376
2449.79	384