File: Jesse_Dataset_v2/Pure Raman/Polystyrene/633nm/ps-ppo-7jan25-1,0000-map3_Y00_X04.txt
182.393	1088
192.79	972
203.174	942
213.542	1044
223.897	1088
234.238	872
244.566	528
254.878	404
265.178	354
275.463	358
285.734	296
295.992	266
306.236	250
316.467	258
326.684	252
336.887	256
347.075	250
357.251	228
367.413	250
377.562	276
387.697	282
397.819	290
407.926	372
418.02	300
428.101	268
438.169	250
448.223	230
458.264	204
468.291	218
478.306	212
488.307	196
498.294	208
508.269	218
518.23	204
528.177	242
538.113	280
548.034	266
557.942	282
567.838	264
577.72	268
587.589	222
597.446	232
607.289	274
617.119	448
626.936	570
636.741	252
646.533	206
656.313	190
666.078	184
675.831	174
685.571	188
695.299	208
705.014	238
714.716	234
724.406	322
734.082	290
743.746	396
753.398	422
763.037	496
772.664	410
782.278	450
791.879	666
801.467	664
811.044	424
820.608	308
830.16	292
839.699	348
849.226	374
858.741	298
868.243	300
877.731	304
887.209	296
896.674	286
906.128	352
915.569	338
924.997	272
934.414	278
943.818	284
953.211	272
962.59	324
971.958	334
981.314	502
990.659	1190
999.99	4180
1009.31	1594
1018.62	456
1027.91	1172
1037.2	1448
1046.47	488
1055.73	426
1064.98	438
1074.22	472
1083.44	452
1092.65	456
1101.86	434
1111.05	372
1120.22	336
1129.39	304
1138.54	336
1147.69	460
1156.82	1000
1165.94	520
1175.05	666
1184.14	1178
1193.23	1192
1202.3	1176
1211.36	728
1220.41	492
1229.45	456
1238.48	416
1247.5	386
1256.5	372
1265.49	378
1274.48	372
1283.45	382
1292.41	394
1301.36	432
1310.29	460
1319.22	516
1328.13	542
1337.04	500
1345.93	430
1354.81	408
1363.68	394
1372.54	414
1381.38	362
1390.22	308
1399.05	310
1407.86	314
1416.66	312
1425.46	282
1434.24	360
1443.01	534
1451.77	638
1460.52	430
1469.25	312
1477.98	306
1486.7	322
1495.4	326
1504.1	300
1512.78	284
1521.45	318
1530.11	296
1538.76	310
1547.41	306
1556.03	330
1564.65	320
1573.26	406
1581.86	826
1590.45	630
1599.02	1250
1607.59	1348
1616.14	524
1624.69	396
1633.22	350
1641.75	370
1650.26	386
1658.76	318
1667.26	316
1675.74	346
1684.21	322
1692.67	328
1701.12	340
1709.56	324
1717.99	304
1726.41	304
1734.82	322
1743.22	318
1751.61	330
1759.99	324
1768.36	326
1776.71	320
1785.06	332
1793.4	318
1801.73	310
1810.04	328
1818.35	326
1826.65	316
1834.94	322
1843.21	318
1851.48	304
1859.74	316
1867.98	316
1876.22	338
1884.45	354
1892.67	334
1900.87	348
1909.07	318
1917.26	312
1925.43	344
1933.6	354
1941.76	334
1949.91	336
1958.05	346
1966.17	350
1974.29	346
1982.4	344
1990.5	344
1998.59	332
2006.67	358
2014.74	328
2022.8	348
2030.85	346
2038.89	350
2046.92	348
2054.94	360
2062.95	356
2070.96	350
2078.95	366
2086.93	336
2094.91	342
2102.87	340
2110.83	370
2118.77	336
2126.71	350
2134.63	364
2142.55	356
2150.46	354
2158.35	340
2166.24	342
2174.12	354
2181.99	358
2189.85	344
2197.7	360
2205.55	360
2213.38	376
2221.2	360
2229.02	356
2236.82	358
2244.62	358
2252.4	368
2260.18	370
2267.95	364
2275.71	352
2283.46	352
2291.2	344
2298.93	370
2306.65	364
2314.37	390
2322.07	376
2329.77	390
2337.45	366
2345.13	374
2352.8	386
2360.46	364
2368.11	372
2375.75	342
2383.38	352
2391.01	354
2398.62	342
2406.23	370
2413.82	368
2421.41	362
2428.99	362
2436.56	362
2444.12	376
2449.79	388