File: Jesse_Dataset_v2/Pure Raman/Polystyrene/633nm/ps-ppo-7jan25-1,0000-map3_Y07_X06.txt
182.393	1034
192.79	938
203.174	968
213.542	1024
223.897	1086
234.238	862
244.566	550
254.878	394
265.178	336
275.463	322
285.734	298
295.992	248
306.236	222
316.467	244
326.684	250
336.887	244
347.075	214
357.251	216
367.413	230
377.562	236
387.697	284
397.819	292
407.926	358
418.02	312
428.101	254
438.169	250
448.223	218
458.264	214
468.291	192
478.306	206
488.307	180
498.294	184
508.269	218
518.23	210
528.177	236
538.113	260
548.034	246
557.942	272
567.838	260
577.72	266
587.589	228
597.446	220
607.289	278
617.119	434
626.936	532
636.741	224
646.533	178
656.313	178
666.078	176
675.831	186
685.571	182
695.299	192
705.014	222
714.716	236
724.406	308
734.082	272
743.746	390
753.398	436
763.037	484
772.664	428
782.278	452
791.879	648
801.467	640
811.044	400
820.608	308
830.16	288
839.699	358
849.226	354
858.741	284
868.243	310
877.731	294
887.209	286
896.674	294
906.128	358
915.569	320
924.997	270
934.414	262
943.818	262
953.211	260
962.59	298
971.958	322
981.314	446
990.659	1154
999.99	4206
1009.31	1574
1018.62	478
1027.91	1170
1037.2	1420
1046.47	506
1055.73	392
1064.98	422
1074.22	434
1083.44	418
1092.65	426
1101.86	426
1111.05	358
1120.22	322
1129.39	282
1138.54	292
1147.69	424
1156.82	1004
1165.94	514
1175.05	626
1184.14	1216
1193.23	1146
1202.3	1120
1211.36	720
1220.41	470
1229.45	426
1238.48	358
1247.5	360
1256.5	334
1265.49	352
1274.48	340
1283.45	352
1292.41	390
1301.36	424
1310.29	412
1319.22	462
1328.13	534
1337.04	498
1345.93	382
1354.81	372
1363.68	382
1372.54	414
1381.38	330
1390.22	288
1399.05	282
1407.86	260
1416.66	284
1425.46	256
1434.24	328
1443.01	466
1451.77	586
1460.52	414
1469.25	294
1477.98	284
1486.7	264
1495.4	314
1504.1	266
1512.78	284
1521.45	276
1530.11	274
1538.76	282
1547.41	268
1556.03	282
1564.65	298
1573.26	374
1581.86	774
1590.45	594
1599.02	1162
1607.59	1264
1616.14	450
1624.69	354
1633.22	318
1641.75	338
1650.26	346
1658.76	284
1667.26	278
1675.74	284
1684.21	286
1692.67	284
1701.12	288
1709.56	274
1717.99	276
1726.41	278
1734.82	288
1743.22	298
1751.61	284
1759.99	260
1768.36	280
1776.71	284
1785.06	260
1793.4	296
1801.73	262
1810.04	278
1818.35	286
1826.65	302
1834.94	306
1843.21	286
1851.48	296
1859.74	302
1867.98	308
1876.22	298
1884.45	298
1892.67	294
1900.87	298
1909.07	310
1917.26	310
1925.43	308
1933.6	312
1941.76	300
1949.91	326
1958.05	312
1966.17	310
1974.29	292
1982.4	314
1990.5	294
1998.59	282
2006.67	302
2014.74	312
2022.8	296
2030.85	308
2038.89	306
2046.92	322
2054.94	316
2062.95	298
2070.96	298
2078.95	326
2086.93	322
2094.91	326
2102.87	338
2110.83	316
2118.77	322
2126.71	324
2134.63	300
2142.55	336
2150.46	310
2158.35	320
2166.24	310
2174.12	296
2181.99	336
2189.85	334
2197.7	340
2205.55	324
2213.38	334
2221.2	326
2229.02	324
2236.82	334
2244.62	334
2252.4	332
2260.18	322
2267.95	326
2275.71	328
2283.46	332
2291.2	324
2298.93	350
2306.65	336
2314.37	336
2322.07	336
2329.77	354
2337.45	316
2345.13	340
2352.8	344
2360.46	338
2368.11	336
2375.75	330
2383.38	344
2391.01	322
2398.62	336
2406.23	358
2413.82	354
2421.41	366
2428.99	354
2436.56	354
2444.12	352
2449.79	366