File: Jesse_Dataset_v2/Pure Raman/Polystyrene/633nm/ps-ppo-7jan25-1,0000-map3_Y06_X09.txt
182.393	1076
192.79	970
203.174	984
213.542	1084
223.897	1094
234.238	862
244.566	576
254.878	410
265.178	364
275.463	352
285.734	318
295.992	278
306.236	262
316.467	266
326.684	262
336.887	264
347.075	262
357.251	242
367.413	252
377.562	266
387.697	312
397.819	326
407.926	376
418.02	298
428.101	296
438.169	250
448.223	260
458.264	200
468.291	220
478.306	200
488.307	216
498.294	222
508.269	216
518.23	244
528.177	248
538.113	310
548.034	286
557.942	290
567.838	276
577.72	294
587.589	252
597.446	238
607.289	282
617.119	470
626.936	552
636.741	258
646.533	214
656.313	196
666.078	196
675.831	198
685.571	196
695.299	202
705.014	248
714.716	244
724.406	320
734.082	296
743.746	404
753.398	450
763.037	514
772.664	434
782.278	468
791.879	658
801.467	618
811.044	438
820.608	310
830.16	288
839.699	372
849.226	342
858.741	306
868.243	340
877.731	322
887.209	292
896.674	318
906.128	386
915.569	336
924.997	276
934.414	292
943.818	282
953.211	296
962.59	328
971.958	348
981.314	510
990.659	1212
999.99	4296
1009.31	1568
1018.62	482
1027.91	1212
1037.2	1490
1046.47	524
1055.73	410
1064.98	418
1074.22	448
1083.44	446
1092.65	466
1101.86	452
1111.05	366
1120.22	338
1129.39	278
1138.54	338
1147.69	442
1156.82	1004
1165.94	546
1175.05	674
1184.14	1220
1193.23	1164
1202.3	1162
1211.36	764
1220.41	518
1229.45	466
1238.48	406
1247.5	366
1256.5	386
1265.49	380
1274.48	374
1283.45	380
1292.41	414
1301.36	448
1310.29	452
1319.22	490
1328.13	538
1337.04	536
1345.93	432
1354.81	406
1363.68	390
1372.54	388
1381.38	368
1390.22	322
1399.05	278
1407.86	302
1416.66	276
1425.46	292
1434.24	370
1443.01	514
1451.77	632
1460.52	396
1469.25	306
1477.98	310
1486.7	306
1495.4	338
1504.1	304
1512.78	278
1521.45	300
1530.11	292
1538.76	304
1547.41	302
1556.03	314
1564.65	346
1573.26	410
1581.86	838
1590.45	650
1599.02	1210
1607.59	1322
1616.14	514
1624.69	384
1633.22	336
1641.75	338
1650.26	354
1658.76	316
1667.26	306
1675.74	316
1684.21	312
1692.67	326
1701.12	316
1709.56	318
1717.99	298
1726.41	300
1734.82	298
1743.22	304
1751.61	302
1759.99	286
1768.36	308
1776.71	306
1785.06	296
1793.4	312
1801.73	300
1810.04	316
1818.35	302
1826.65	310
1834.94	322
1843.21	300
1851.48	324
1859.74	302
1867.98	320
1876.22	304
1884.45	316
1892.67	298
1900.87	304
1909.07	306
1917.26	312
1925.43	318
1933.6	336
1941.76	304
1949.91	346
1958.05	330
1966.17	314
1974.29	328
1982.4	326
1990.5	336
1998.59	314
2006.67	310
2014.74	336
2022.8	322
2030.85	326
2038.89	328
2046.92	342
2054.94	334
2062.95	336
2070.96	328
2078.95	354
2086.93	322
2094.91	318
2102.87	342
2110.83	332
2118.77	354
2126.71	336
2134.63	358
2142.55	320
2150.46	336
2158.35	342
2166.24	326
2174.12	336
2181.99	356
2189.85	354
2197.7	342
2205.55	356
2213.38	334
2221.2	348
2229.02	352
2236.82	362
2244.62	340
2252.4	362
2260.18	314
2267.95	344
2275.71	336
2283.46	350
2291.2	338
2298.93	336
2306.65	370
2314.37	362
2322.07	352
2329.77	366
2337.45	346
2345.13	336
2352.8	370
2360.46	360
2368.11	362
2375.75	356
2383.38	350
2391.01	358
2398.62	370
2406.23	364
2413.82	348
2421.41	348
2428.99	378
2436.56	356
2444.12	384
2449.79	364