File: Jesse_Dataset_v2/Pure Raman/Polystyrene/633nm/ps-ppo-7jan25-1,0000-map3_Y01_X06.txt
182.393	1102
192.79	920
203.174	994
213.542	1072
223.897	1118
234.238	890
244.566	560
254.878	400
265.178	362
275.463	336
285.734	308
295.992	274
306.236	252
316.467	268
326.684	252
336.887	258
347.075	264
357.251	226
367.413	234
377.562	246
387.697	272
397.819	302
407.926	362
418.02	320
428.101	272
438.169	254
448.223	238
458.264	218
468.291	218
478.306	208
488.307	218
498.294	194
508.269	232
518.23	228
528.177	246
538.113	274
548.034	276
557.942	276
567.838	282
577.72	286
587.589	242
597.446	246
607.289	316
617.119	434
626.936	572
636.741	252
646.533	226
656.313	208
666.078	200
675.831	208
685.571	198
695.299	226
705.014	256
714.716	256
724.406	296
734.082	322
743.746	404
753.398	428
763.037	506
772.664	472
782.278	478
791.879	668
801.467	682
811.044	414
820.608	316
830.16	300
839.699	370
849.226	364
858.741	326
868.243	338
877.731	332
887.209	306
896.674	316
906.128	386
915.569	322
924.997	282
934.414	280
943.818	280
953.211	294
962.59	310
971.958	364
981.314	474
990.659	1156
999.99	4198
1009.31	1604
1018.62	486
1027.91	1206
1037.2	1450
1046.47	516
1055.73	414
1064.98	460
1074.22	482
1083.44	470
1092.65	460
1101.86	450
1111.05	396
1120.22	338
1129.39	310
1138.54	332
1147.69	450
1156.82	1034
1165.94	556
1175.05	650
1184.14	1238
1193.23	1198
1202.3	1180
1211.36	746
1220.41	504
1229.45	456
1238.48	400
1247.5	364
1256.5	378
1265.49	378
1274.48	378
1283.45	384
1292.41	394
1301.36	444
1310.29	468
1319.22	510
1328.13	570
1337.04	534
1345.93	424
1354.81	384
1363.68	424
1372.54	410
1381.38	378
1390.22	310
1399.05	300
1407.86	308
1416.66	294
1425.46	312
1434.24	368
1443.01	506
1451.77	608
1460.52	396
1469.25	310
1477.98	288
1486.7	294
1495.4	318
1504.1	284
1512.78	294
1521.45	286
1530.11	298
1538.76	310
1547.41	308
1556.03	314
1564.65	330
1573.26	386
1581.86	808
1590.45	612
1599.02	1224
1607.59	1352
1616.14	518
1624.69	396
1633.22	374
1641.75	356
1650.26	376
1658.76	346
1667.26	320
1675.74	330
1684.21	312
1692.67	306
1701.12	294
1709.56	312
1717.99	298
1726.41	304
1734.82	300
1743.22	300
1751.61	314
1759.99	310
1768.36	292
1776.71	298
1785.06	286
1793.4	312
1801.73	320
1810.04	306
1818.35	328
1826.65	314
1834.94	328
1843.21	324
1851.48	332
1859.74	328
1867.98	316
1876.22	308
1884.45	312
1892.67	312
1900.87	308
1909.07	332
1917.26	342
1925.43	344
1933.6	330
1941.76	342
1949.91	322
1958.05	328
1966.17	338
1974.29	336
1982.4	312
1990.5	350
1998.59	330
2006.67	354
2014.74	350
2022.8	336
2030.85	344
2038.89	362
2046.92	334
2054.94	328
2062.95	340
2070.96	350
2078.95	318
2086.93	352
2094.91	364
2102.87	340
2110.83	348
2118.77	350
2126.71	332
2134.63	326
2142.55	346
2150.46	338
2158.35	360
2166.24	356
2174.12	364
2181.99	356
2189.85	348
2197.7	378
2205.55	346
2213.38	366
2221.2	344
2229.02	370
2236.82	360
2244.62	350
2252.4	354
2260.18	354
2267.95	372
2275.71	340
2283.46	358
2291.2	368
2298.93	350
2306.65	366
2314.37	348
2322.07	356
2329.77	340
2337.45	354
2345.13	374
2352.8	388
2360.46	358
2368.11	366
2375.75	374
2383.38	372
2391.01	388
2398.62	354
2406.23	372
2413.82	374
2421.41	376
2428.99	358
2436.56	394
2444.12	398
2449.79	366