File: Jesse_Dataset_v2/Pure Raman/Polystyrene/633nm/ps-ppo-7jan25-1,0000-map3_Y06_X05.txt
182.393	1068
192.79	906
203.174	948
213.542	1026
223.897	1068
234.238	836
244.566	538
254.878	392
265.178	354
275.463	334
285.734	302
295.992	270
306.236	250
316.467	236
326.684	264
336.887	248
347.075	240
357.251	216
367.413	242
377.562	262
387.697	270
397.819	312
407.926	354
418.02	286
428.101	248
438.169	240
448.223	224
458.264	190
468.291	188
478.306	196
488.307	176
498.294	208
508.269	224
518.23	220
528.177	232
538.113	262
548.034	274
557.942	242
567.838	258
577.72	266
587.589	244
597.446	222
607.289	278
617.119	450
626.936	544
636.741	248
646.533	192
656.313	212
666.078	200
675.831	176
685.571	192
695.299	184
705.014	248
714.716	226
724.406	318
734.082	286
743.746	392
753.398	448
763.037	494
772.664	442
782.278	478
791.879	650
801.467	642
811.044	408
820.608	330
830.16	286
839.699	342
849.226	374
858.741	314
868.243	318
877.731	316
887.209	284
896.674	318
906.128	392
915.569	324
924.997	274
934.414	282
943.818	264
953.211	304
962.59	316
971.958	342
981.314	466
990.659	1182
999.99	4192
1009.31	1596
1018.62	474
1027.91	1164
1037.2	1456
1046.47	512
1055.73	394
1064.98	418
1074.22	456
1083.44	438
1092.65	452
1101.86	436
1111.05	360
1120.22	308
1129.39	280
1138.54	300
1147.69	438
1156.82	1006
1165.94	546
1175.05	638
1184.14	1212
1193.23	1170
1202.3	1154
1211.36	746
1220.41	490
1229.45	436
1238.48	382
1247.5	372
1256.5	360
1265.49	368
1274.48	364
1283.45	344
1292.41	386
1301.36	412
1310.29	414
1319.22	504
1328.13	538
1337.04	478
1345.93	406
1354.81	392
1363.68	372
1372.54	402
1381.38	348
1390.22	316
1399.05	258
1407.86	276
1416.66	262
1425.46	284
1434.24	342
1443.01	496
1451.77	614
1460.52	372
1469.25	294
1477.98	270
1486.7	280
1495.4	318
1504.1	274
1512.78	284
1521.45	280
1530.11	274
1538.76	274
1547.41	280
1556.03	304
1564.65	296
1573.26	382
1581.86	828
1590.45	614
1599.02	1232
1607.59	1348
1616.14	484
1624.69	364
1633.22	310
1641.75	312
1650.26	336
1658.76	310
1667.26	298
1675.74	304
1684.21	294
1692.67	294
1701.12	292
1709.56	292
1717.99	274
1726.41	270
1734.82	268
1743.22	292
1751.61	280
1759.99	292
1768.36	282
1776.71	282
1785.06	292
1793.4	274
1801.73	300
1810.04	298
1818.35	276
1826.65	288
1834.94	276
1843.21	280
1851.48	276
1859.74	292
1867.98	278
1876.22	270
1884.45	280
1892.67	296
1900.87	302
1909.07	280
1917.26	316
1925.43	328
1933.6	324
1941.76	320
1949.91	300
1958.05	304
1966.17	306
1974.29	294
1982.4	294
1990.5	316
1998.59	308
2006.67	306
2014.74	306
2022.8	298
2030.85	322
2038.89	324
2046.92	324
2054.94	316
2062.95	298
2070.96	324
2078.95	324
2086.93	322
2094.91	314
2102.87	304
2110.83	334
2118.77	322
2126.71	322
2134.63	312
2142.55	336
2150.46	300
2158.35	326
2166.24	318
2174.12	344
2181.99	336
2189.85	330
2197.7	316
2205.55	336
2213.38	332
2221.2	344
2229.02	318
2236.82	332
2244.62	316
2252.4	356
2260.18	326
2267.95	336
2275.71	324
2283.46	330
2291.2	356
2298.93	344
2306.65	350
2314.37	360
2322.07	340
2329.77	334
2337.45	346
2345.13	344
2352.8	346
2360.46	348
2368.11	350
2375.75	334
2383.38	352
2391.01	342
2398.62	342
2406.23	348
2413.82	358
2421.41	354
2428.99	368
2436.56	354
2444.12	364
2449.79	376