File: Jesse_Dataset_v2/Pure Raman/Polystyrene/633nm/ps-ppo-7jan25-1,0000-map3_Y05_X04.txt
182.393	1010
192.79	946
203.174	940
213.542	1052
223.897	1058
234.238	842
244.566	542
254.878	388
265.178	334
275.463	328
285.734	276
295.992	254
306.236	228
316.467	240
326.684	238
336.887	230
347.075	210
357.251	216
367.413	218
377.562	230
387.697	264
397.819	302
407.926	334
418.02	266
428.101	246
438.169	208
448.223	210
458.264	186
468.291	176
478.306	178
488.307	176
498.294	182
508.269	194
518.23	190
528.177	208
538.113	252
548.034	254
557.942	248
567.838	252
577.72	236
587.589	212
597.446	224
607.289	244
617.119	416
626.936	544
636.741	220
646.533	182
656.313	160
666.078	154
675.831	168
685.571	158
695.299	182
705.014	218
714.716	220
724.406	284
734.082	284
743.746	358
753.398	392
763.037	466
772.664	444
782.278	446
791.879	650
801.467	618
811.044	392
820.608	288
830.16	258
839.699	328
849.226	330
858.741	284
868.243	300
877.731	284
887.209	270
896.674	288
906.128	348
915.569	296
924.997	240
934.414	244
943.818	260
953.211	258
962.59	274
971.958	324
981.314	456
990.659	1164
999.99	4128
1009.31	1554
1018.62	470
1027.91	1174
1037.2	1442
1046.47	468
1055.73	394
1064.98	432
1074.22	462
1083.44	420
1092.65	430
1101.86	428
1111.05	340
1120.22	310
1129.39	276
1138.54	296
1147.69	398
1156.82	984
1165.94	530
1175.05	616
1184.14	1194
1193.23	1132
1202.3	1144
1211.36	726
1220.41	472
1229.45	436
1238.48	374
1247.5	374
1256.5	358
1265.49	354
1274.48	342
1283.45	344
1292.41	392
1301.36	404
1310.29	422
1319.22	466
1328.13	502
1337.04	488
1345.93	382
1354.81	338
1363.68	376
1372.54	374
1381.38	328
1390.22	280
1399.05	276
1407.86	264
1416.66	276
1425.46	254
1434.24	318
1443.01	484
1451.77	592
1460.52	346
1469.25	280
1477.98	258
1486.7	254
1495.4	286
1504.1	240
1512.78	264
1521.45	262
1530.11	284
1538.76	252
1547.41	272
1556.03	268
1564.65	306
1573.26	370
1581.86	806
1590.45	610
1599.02	1210
1607.59	1330
1616.14	464
1624.69	338
1633.22	326
1641.75	326
1650.26	344
1658.76	280
1667.26	274
1675.74	292
1684.21	282
1692.67	294
1701.12	286
1709.56	262
1717.99	280
1726.41	270
1734.82	286
1743.22	282
1751.61	280
1759.99	272
1768.36	276
1776.71	284
1785.06	274
1793.4	290
1801.73	288
1810.04	286
1818.35	280
1826.65	290
1834.94	284
1843.21	276
1851.48	278
1859.74	282
1867.98	296
1876.22	284
1884.45	298
1892.67	282
1900.87	298
1909.07	292
1917.26	300
1925.43	300
1933.6	304
1941.76	304
1949.91	294
1958.05	292
1966.17	294
1974.29	296
1982.4	310
1990.5	302
1998.59	288
2006.67	308
2014.74	290
2022.8	308
2030.85	306
2038.89	310
2046.92	310
2054.94	310
2062.95	314
2070.96	314
2078.95	318
2086.93	324
2094.91	324
2102.87	324
2110.83	296
2118.77	312
2126.71	338
2134.63	316
2142.55	328
2150.46	324
2158.35	314
2166.24	308
2174.12	324
2181.99	326
2189.85	314
2197.7	336
2205.55	316
2213.38	320
2221.2	330
2229.02	342
2236.82	334
2244.62	322
2252.4	346
2260.18	342
2267.95	318
2275.71	336
2283.46	328
2291.2	336
2298.93	342
2306.65	342
2314.37	352
2322.07	316
2329.77	346
2337.45	340
2345.13	346
2352.8	342
2360.46	350
2368.11	356
2375.75	330
2383.38	364
2391.01	322
2398.62	346
2406.23	330
2413.82	354
2421.41	350
2428.99	362
2436.56	332
2444.12	360
2449.79	354