File: Jesse_Dataset_v2/Pure Raman/Polystyrene/633nm/ps-ppo-7jan25-1,0000-map3_Y00_X09.txt
182.393	1038
192.79	936
203.174	966
213.542	1058
223.897	1076
234.238	874
244.566	520
254.878	394
265.178	330
275.463	332
285.734	284
295.992	264
306.236	234
316.467	254
326.684	250
336.887	246
347.075	236
357.251	244
367.413	230
377.562	236
387.697	252
397.819	292
407.926	362
418.02	310
428.101	262
438.169	228
448.223	222
458.264	200
468.291	182
478.306	170
488.307	180
498.294	202
508.269	204
518.23	204
528.177	214
538.113	248
548.034	274
557.942	254
567.838	256
577.72	260
587.589	224
597.446	210
607.289	282
617.119	426
626.936	498
636.741	214
646.533	192
656.313	180
666.078	158
675.831	172
685.571	178
695.299	188
705.014	240
714.716	214
724.406	302
734.082	288
743.746	386
753.398	418
763.037	474
772.664	436
782.278	464
791.879	610
801.467	638
811.044	410
820.608	298
830.16	288
839.699	342
849.226	328
858.741	302
868.243	300
877.731	296
887.209	298
896.674	288
906.128	368
915.569	310
924.997	286
934.414	268
943.818	280
953.211	280
962.59	318
971.958	322
981.314	468
990.659	1134
999.99	4226
1009.31	1542
1018.62	482
1027.91	1192
1037.2	1438
1046.47	474
1055.73	386
1064.98	418
1074.22	472
1083.44	410
1092.65	424
1101.86	444
1111.05	372
1120.22	314
1129.39	294
1138.54	314
1147.69	438
1156.82	996
1165.94	536
1175.05	628
1184.14	1214
1193.23	1128
1202.3	1118
1211.36	738
1220.41	494
1229.45	466
1238.48	398
1247.5	380
1256.5	372
1265.49	388
1274.48	356
1283.45	366
1292.41	408
1301.36	422
1310.29	456
1319.22	502
1328.13	514
1337.04	532
1345.93	402
1354.81	398
1363.68	404
1372.54	376
1381.38	366
1390.22	292
1399.05	288
1407.86	298
1416.66	286
1425.46	306
1434.24	348
1443.01	468
1451.77	602
1460.52	402
1469.25	308
1477.98	280
1486.7	292
1495.4	322
1504.1	282
1512.78	274
1521.45	282
1530.11	308
1538.76	294
1547.41	300
1556.03	316
1564.65	340
1573.26	388
1581.86	786
1590.45	624
1599.02	1240
1607.59	1342
1616.14	510
1624.69	378
1633.22	352
1641.75	322
1650.26	370
1658.76	320
1667.26	310
1675.74	316
1684.21	322
1692.67	310
1701.12	306
1709.56	316
1717.99	302
1726.41	308
1734.82	306
1743.22	306
1751.61	314
1759.99	288
1768.36	312
1776.71	318
1785.06	322
1793.4	318
1801.73	324
1810.04	298
1818.35	318
1826.65	330
1834.94	320
1843.21	310
1851.48	328
1859.74	340
1867.98	312
1876.22	314
1884.45	312
1892.67	320
1900.87	330
1909.07	338
1917.26	342
1925.43	352
1933.6	328
1941.76	348
1949.91	348
1958.05	334
1966.17	350
1974.29	342
1982.4	356
1990.5	334
1998.59	328
2006.67	352
2014.74	328
2022.8	346
2030.85	366
2038.89	330
2046.92	328
2054.94	336
2062.95	364
2070.96	340
2078.95	332
2086.93	348
2094.91	348
2102.87	350
2110.83	360
2118.77	364
2126.71	362
2134.63	346
2142.55	354
2150.46	368
2158.35	358
2166.24	344
2174.12	352
2181.99	344
2189.85	352
2197.7	332
2205.55	346
2213.38	348
2221.2	352
2229.02	342
2236.82	360
2244.62	356
2252.4	376
2260.18	356
2267.95	364
2275.71	354
2283.46	360
2291.2	364
2298.93	366
2306.65	370
2314.37	356
2322.07	360
2329.77	352
2337.45	348
2345.13	344
2352.8	352
2360.46	362
2368.11	368
2375.75	370
2383.38	386
2391.01	370
2398.62	362
2406.23	378
2413.82	392
2421.41	402
2428.99	386
2436.56	384
2444.12	358
2449.79	410