File: Jesse_Dataset_v2/Pure Raman/Polystyrene/633nm/ps-ppo-7jan25-1,0000-map3_Y00_X07.txt
182.393	1134
192.79	1026
203.174	1066
213.542	1124
223.897	1186
234.238	912
244.566	616
254.878	490
265.178	420
275.463	390
285.734	358
295.992	354
306.236	312
316.467	328
326.684	328
336.887	306
347.075	318
357.251	306
367.413	292
377.562	312
387.697	328
397.819	354
407.926	422
418.02	362
428.101	310
438.169	302
448.223	280
458.264	256
468.291	240
478.306	236
488.307	238
498.294	256
508.269	246
518.23	252
528.177	270
538.113	294
548.034	300
557.942	316
567.838	292
577.72	302
587.589	260
597.446	288
607.289	316
617.119	498
626.936	580
636.741	266
646.533	252
656.313	216
666.078	232
675.831	204
685.571	242
695.299	236
705.014	268
714.716	256
724.406	340
734.082	344
743.746	408
753.398	476
763.037	528
772.664	458
782.278	516
791.879	678
801.467	700
811.044	432
820.608	338
830.16	308
839.699	384
849.226	374
858.741	354
868.243	364
877.731	346
887.209	338
896.674	344
906.128	414
915.569	394
924.997	306
934.414	318
943.818	330
953.211	326
962.59	364
971.958	404
981.314	522
990.659	1240
999.99	4264
1009.31	1628
1018.62	528
1027.91	1256
1037.2	1490
1046.47	554
1055.73	492
1064.98	510
1074.22	538
1083.44	494
1092.65	506
1101.86	526
1111.05	418
1120.22	392
1129.39	362
1138.54	358
1147.69	502
1156.82	1054
1165.94	620
1175.05	700
1184.14	1202
1193.23	1228
1202.3	1254
1211.36	812
1220.41	570
1229.45	492
1238.48	466
1247.5	442
1256.5	426
1265.49	442
1274.48	418
1283.45	440
1292.41	460
1301.36	478
1310.29	528
1319.22	556
1328.13	606
1337.04	580
1345.93	478
1354.81	470
1363.68	480
1372.54	450
1381.38	410
1390.22	374
1399.05	342
1407.86	340
1416.66	350
1425.46	328
1434.24	410
1443.01	546
1451.77	674
1460.52	480
1469.25	352
1477.98	348
1486.7	336
1495.4	368
1504.1	336
1512.78	310
1521.45	350
1530.11	336
1538.76	334
1547.41	358
1556.03	364
1564.65	370
1573.26	422
1581.86	832
1590.45	662
1599.02	1258
1607.59	1356
1616.14	544
1624.69	408
1633.22	380
1641.75	382
1650.26	384
1658.76	364
1667.26	324
1675.74	344
1684.21	346
1692.67	330
1701.12	344
1709.56	350
1717.99	342
1726.41	334
1734.82	324
1743.22	340
1751.61	306
1759.99	334
1768.36	318
1776.71	332
1785.06	332
1793.4	328
1801.73	340
1810.04	350
1818.35	324
1826.65	318
1834.94	350
1843.21	342
1851.48	332
1859.74	326
1867.98	334
1876.22	320
1884.45	336
1892.67	332
1900.87	346
1909.07	324
1917.26	334
1925.43	342
1933.6	362
1941.76	364
1949.91	336
1958.05	342
1966.17	336
1974.29	354
1982.4	314
1990.5	334
1998.59	340
2006.67	336
2014.74	332
2022.8	346
2030.85	348
2038.89	346
2046.92	342
2054.94	366
2062.95	348
2070.96	354
2078.95	346
2086.93	354
2094.91	356
2102.87	360
2110.83	376
2118.77	354
2126.71	334
2134.63	360
2142.55	326
2150.46	364
2158.35	366
2166.24	384
2174.12	362
2181.99	368
2189.85	368
2197.7	356
2205.55	366
2213.38	358
2221.2	366
2229.02	392
2236.82	368
2244.62	364
2252.4	370
2260.18	358
2267.95	376
2275.71	362
2283.46	372
2291.2	388
2298.93	380
2306.65	370
2314.37	382
2322.07	398
2329.77	390
2337.45	382
2345.13	374
2352.8	388
2360.46	392
2368.11	372
2375.75	392
2383.38	380
2391.01	384
2398.62	388
2406.23	378
2413.82	384
2421.41	374
2428.99	384
2436.56	380
2444.12	416
2449.79	388