File: Jesse_Dataset_v2/Pure Raman/Polystyrene/633nm/ps-ppo-7jan25-1,0000-map3_Y04_X08.txt
182.393	1034
192.79	900
203.174	920
213.542	1004
223.897	1000
234.238	840
244.566	510
254.878	350
265.178	312
275.463	294
285.734	258
295.992	222
306.236	202
316.467	232
326.684	218
336.887	224
347.075	198
357.251	198
367.413	198
377.562	200
387.697	236
397.819	268
407.926	332
418.02	254
428.101	226
438.169	206
448.223	184
458.264	172
468.291	158
478.306	160
488.307	148
498.294	170
508.269	168
518.23	178
528.177	194
538.113	224
548.034	248
557.942	210
567.838	242
577.72	226
587.589	198
597.446	204
607.289	240
617.119	406
626.936	508
636.741	194
646.533	156
656.313	150
666.078	148
675.831	152
685.571	158
695.299	152
705.014	208
714.716	182
724.406	254
734.082	256
743.746	354
753.398	396
763.037	440
772.664	408
782.278	434
791.879	600
801.467	588
811.044	378
820.608	258
830.16	256
839.699	316
849.226	334
858.741	266
868.243	262
877.731	286
887.209	252
896.674	274
906.128	314
915.569	292
924.997	236
934.414	218
943.818	226
953.211	234
962.59	278
971.958	302
981.314	416
990.659	1144
999.99	4172
1009.31	1528
1018.62	452
1027.91	1154
1037.2	1398
1046.47	430
1055.73	390
1064.98	396
1074.22	408
1083.44	410
1092.65	408
1101.86	404
1111.05	334
1120.22	288
1129.39	246
1138.54	282
1147.69	366
1156.82	980
1165.94	504
1175.05	602
1184.14	1196
1193.23	1114
1202.3	1118
1211.36	690
1220.41	466
1229.45	400
1238.48	334
1247.5	334
1256.5	342
1265.49	340
1274.48	322
1283.45	338
1292.41	358
1301.36	382
1310.29	412
1319.22	474
1328.13	516
1337.04	478
1345.93	380
1354.81	340
1363.68	350
1372.54	372
1381.38	342
1390.22	266
1399.05	268
1407.86	268
1416.66	264
1425.46	252
1434.24	328
1443.01	482
1451.77	578
1460.52	352
1469.25	272
1477.98	280
1486.7	258
1495.4	296
1504.1	250
1512.78	256
1521.45	262
1530.11	258
1538.76	280
1547.41	264
1556.03	282
1564.65	312
1573.26	370
1581.86	800
1590.45	590
1599.02	1228
1607.59	1258
1616.14	470
1624.69	362
1633.22	322
1641.75	330
1650.26	338
1658.76	312
1667.26	296
1675.74	276
1684.21	288
1692.67	292
1701.12	280
1709.56	288
1717.99	276
1726.41	292
1734.82	290
1743.22	280
1751.61	294
1759.99	290
1768.36	288
1776.71	288
1785.06	292
1793.4	294
1801.73	304
1810.04	292
1818.35	292
1826.65	288
1834.94	304
1843.21	304
1851.48	272
1859.74	312
1867.98	302
1876.22	292
1884.45	298
1892.67	302
1900.87	312
1909.07	320
1917.26	310
1925.43	310
1933.6	338
1941.76	310
1949.91	310
1958.05	320
1966.17	318
1974.29	312
1982.4	322
1990.5	304
1998.59	304
2006.67	320
2014.74	328
2022.8	314
2030.85	308
2038.89	308
2046.92	330
2054.94	314
2062.95	324
2070.96	328
2078.95	316
2086.93	316
2094.91	326
2102.87	320
2110.83	324
2118.77	326
2126.71	334
2134.63	336
2142.55	348
2150.46	322
2158.35	314
2166.24	328
2174.12	354
2181.99	342
2189.85	348
2197.7	314
2205.55	342
2213.38	338
2221.2	352
2229.02	346
2236.82	320
2244.62	324
2252.4	334
2260.18	330
2267.95	342
2275.71	322
2283.46	338
2291.2	336
2298.93	346
2306.65	350
2314.37	354
2322.07	352
2329.77	334
2337.45	338
2345.13	362
2352.8	360
2360.46	338
2368.11	338
2375.75	348
2383.38	356
2391.01	342
2398.62	338
2406.23	356
2413.82	360
2421.41	336
2428.99	360
2436.56	366
2444.12	358
2449.79	360