File: Jesse_Dataset_v2/Pure Raman/Polystyrene/633nm/ps-ppo-7jan25-1,0000-map3_Y07_X10.txt
182.393	1150
192.79	1020
203.174	1014
213.542	1108
223.897	1158
234.238	902
244.566	602
254.878	446
265.178	422
275.463	388
285.734	356
295.992	342
306.236	304
316.467	346
326.684	312
336.887	320
347.075	310
357.251	304
367.413	292
377.562	294
387.697	350
397.819	358
407.926	442
418.02	374
428.101	328
438.169	294
448.223	292
458.264	270
468.291	258
478.306	266
488.307	288
498.294	272
508.269	316
518.23	294
528.177	310
538.113	358
548.034	364
557.942	346
567.838	376
577.72	356
587.589	302
597.446	320
607.289	378
617.119	534
626.936	642
636.741	342
646.533	288
656.313	284
666.078	280
675.831	272
685.571	288
695.299	294
705.014	326
714.716	314
724.406	408
734.082	416
743.746	504
753.398	512
763.037	622
772.664	558
782.278	584
791.879	744
801.467	752
811.044	520
820.608	418
830.16	390
839.699	462
849.226	442
858.741	420
868.243	434
877.731	416
887.209	400
896.674	416
906.128	470
915.569	406
924.997	362
934.414	374
943.818	372
953.211	364
962.59	400
971.958	430
981.314	592
990.659	1344
999.99	4376
1009.31	1674
1018.62	580
1027.91	1280
1037.2	1524
1046.47	624
1055.73	522
1064.98	504
1074.22	540
1083.44	550
1092.65	532
1101.86	524
1111.05	464
1120.22	430
1129.39	390
1138.54	394
1147.69	532
1156.82	1052
1165.94	612
1175.05	710
1184.14	1328
1193.23	1230
1202.3	1258
1211.36	788
1220.41	590
1229.45	504
1238.48	482
1247.5	436
1256.5	430
1265.49	434
1274.48	424
1283.45	414
1292.41	470
1301.36	466
1310.29	490
1319.22	550
1328.13	602
1337.04	560
1345.93	484
1354.81	474
1363.68	468
1372.54	472
1381.38	406
1390.22	350
1399.05	342
1407.86	318
1416.66	354
1425.46	320
1434.24	402
1443.01	544
1451.77	664
1460.52	444
1469.25	346
1477.98	338
1486.7	352
1495.4	338
1504.1	348
1512.78	312
1521.45	336
1530.11	314
1538.76	322
1547.41	324
1556.03	348
1564.65	360
1573.26	442
1581.86	894
1590.45	674
1599.02	1288
1607.59	1334
1616.14	536
1624.69	418
1633.22	378
1641.75	378
1650.26	382
1658.76	360
1667.26	344
1675.74	352
1684.21	350
1692.67	350
1701.12	344
1709.56	338
1717.99	310
1726.41	350
1734.82	336
1743.22	336
1751.61	330
1759.99	322
1768.36	304
1776.71	340
1785.06	320
1793.4	346
1801.73	338
1810.04	352
1818.35	346
1826.65	328
1834.94	332
1843.21	342
1851.48	354
1859.74	336
1867.98	348
1876.22	348
1884.45	346
1892.67	352
1900.87	358
1909.07	344
1917.26	374
1925.43	352
1933.6	344
1941.76	338
1949.91	342
1958.05	356
1966.17	348
1974.29	366
1982.4	352
1990.5	342
1998.59	350
2006.67	366
2014.74	338
2022.8	364
2030.85	398
2038.89	372
2046.92	388
2054.94	392
2062.95	372
2070.96	382
2078.95	386
2086.93	382
2094.91	350
2102.87	366
2110.83	386
2118.77	366
2126.71	376
2134.63	380
2142.55	370
2150.46	370
2158.35	394
2166.24	388
2174.12	368
2181.99	350
2189.85	408
2197.7	344
2205.55	390
2213.38	376
2221.2	392
2229.02	388
2236.82	392
2244.62	370
2252.4	354
2260.18	394
2267.95	388
2275.71	384
2283.46	382
2291.2	364
2298.93	396
2306.65	392
2314.37	388
2322.07	388
2329.77	392
2337.45	394
2345.13	394
2352.8	390
2360.46	372
2368.11	376
2375.75	392
2383.38	392
2391.01	398
2398.62	388
2406.23	382
2413.82	378
2421.41	378
2428.99	384
2436.56	398
2444.12	404
2449.79	410