File: Jesse_Dataset_v2/Pure Raman/Polystyrene/633nm/ps-ppo-7jan25-1,0000-map3_Y04_X01.txt
182.393	1048
192.79	940
203.174	946
213.542	1048
223.897	1072
234.238	886
244.566	538
254.878	406
265.178	334
275.463	346
285.734	292
295.992	242
306.236	230
316.467	236
326.684	230
336.887	232
347.075	234
357.251	212
367.413	238
377.562	220
387.697	254
397.819	282
407.926	344
418.02	296
428.101	256
438.169	224
448.223	220
458.264	188
468.291	180
478.306	168
488.307	184
498.294	178
508.269	174
518.23	176
528.177	210
538.113	258
548.034	252
557.942	256
567.838	270
577.72	246
587.589	208
597.446	206
607.289	268
617.119	422
626.936	526
636.741	206
646.533	174
656.313	176
666.078	162
675.831	174
685.571	162
695.299	188
705.014	214
714.716	202
724.406	286
734.082	266
743.746	380
753.398	418
763.037	458
772.664	422
782.278	450
791.879	656
801.467	620
811.044	412
820.608	292
830.16	236
839.699	336
849.226	344
858.741	286
868.243	306
877.731	282
887.209	288
896.674	278
906.128	348
915.569	300
924.997	242
934.414	246
943.818	258
953.211	248
962.59	292
971.958	304
981.314	458
990.659	1214
999.99	4144
1009.31	1576
1018.62	444
1027.91	1184
1037.2	1410
1046.47	492
1055.73	402
1064.98	404
1074.22	454
1083.44	428
1092.65	408
1101.86	424
1111.05	348
1120.22	296
1129.39	262
1138.54	318
1147.69	390
1156.82	956
1165.94	524
1175.05	618
1184.14	1244
1193.23	1126
1202.3	1194
1211.36	732
1220.41	462
1229.45	406
1238.48	342
1247.5	350
1256.5	342
1265.49	338
1274.48	322
1283.45	348
1292.41	380
1301.36	394
1310.29	438
1319.22	472
1328.13	498
1337.04	492
1345.93	406
1354.81	354
1363.68	358
1372.54	368
1381.38	350
1390.22	278
1399.05	262
1407.86	260
1416.66	268
1425.46	258
1434.24	316
1443.01	470
1451.77	630
1460.52	352
1469.25	304
1477.98	284
1486.7	252
1495.4	296
1504.1	262
1512.78	278
1521.45	258
1530.11	268
1538.76	252
1547.41	268
1556.03	268
1564.65	304
1573.26	356
1581.86	804
1590.45	610
1599.02	1240
1607.59	1302
1616.14	484
1624.69	372
1633.22	314
1641.75	318
1650.26	354
1658.76	284
1667.26	288
1675.74	292
1684.21	294
1692.67	294
1701.12	274
1709.56	272
1717.99	260
1726.41	276
1734.82	276
1743.22	280
1751.61	276
1759.99	286
1768.36	274
1776.71	276
1785.06	280
1793.4	282
1801.73	272
1810.04	284
1818.35	300
1826.65	282
1834.94	294
1843.21	268
1851.48	296
1859.74	286
1867.98	300
1876.22	296
1884.45	290
1892.67	284
1900.87	306
1909.07	296
1917.26	306
1925.43	306
1933.6	286
1941.76	322
1949.91	294
1958.05	314
1966.17	298
1974.29	302
1982.4	308
1990.5	308
1998.59	308
2006.67	320
2014.74	318
2022.8	310
2030.85	304
2038.89	322
2046.92	296
2054.94	318
2062.95	324
2070.96	338
2078.95	322
2086.93	324
2094.91	320
2102.87	326
2110.83	318
2118.77	312
2126.71	302
2134.63	324
2142.55	302
2150.46	316
2158.35	322
2166.24	320
2174.12	326
2181.99	346
2189.85	306
2197.7	330
2205.55	332
2213.38	336
2221.2	338
2229.02	332
2236.82	350
2244.62	340
2252.4	344
2260.18	320
2267.95	336
2275.71	334
2283.46	336
2291.2	344
2298.93	340
2306.65	348
2314.37	350
2322.07	340
2329.77	334
2337.45	344
2345.13	354
2352.8	334
2360.46	350
2368.11	346
2375.75	336
2383.38	354
2391.01	348
2398.62	344
2406.23	330
2413.82	354
2421.41	342
2428.99	370
2436.56	348
2444.12	370
2449.79	370