File: Jesse_Dataset_v2/Pure Raman/Polystyrene/633nm/ps-ppo-7jan25-1,0000-map3_Y05_X06.txt
182.393	986
192.79	910
203.174	924
213.542	1034
223.897	1032
234.238	816
244.566	504
254.878	340
265.178	318
275.463	286
285.734	248
295.992	234
306.236	220
316.467	222
326.684	212
336.887	224
347.075	208
357.251	206
367.413	200
377.562	204
387.697	230
397.819	250
407.926	320
418.02	258
428.101	214
438.169	200
448.223	172
458.264	172
468.291	158
478.306	150
488.307	150
498.294	152
508.269	170
518.23	172
528.177	176
538.113	218
548.034	244
557.942	228
567.838	230
577.72	228
587.589	190
597.446	182
607.289	232
617.119	400
626.936	514
636.741	202
646.533	156
656.313	142
666.078	138
675.831	140
685.571	144
695.299	156
705.014	200
714.716	182
724.406	250
734.082	248
743.746	356
753.398	406
763.037	462
772.664	398
782.278	410
791.879	628
801.467	586
811.044	370
820.608	262
830.16	238
839.699	316
849.226	312
858.741	260
868.243	266
877.731	270
887.209	250
896.674	260
906.128	330
915.569	272
924.997	212
934.414	218
943.818	224
953.211	234
962.59	274
971.958	300
981.314	398
990.659	1164
999.99	4162
1009.31	1530
1018.62	430
1027.91	1156
1037.2	1380
1046.47	460
1055.73	356
1064.98	386
1074.22	426
1083.44	388
1092.65	390
1101.86	390
1111.05	316
1120.22	282
1129.39	240
1138.54	252
1147.69	366
1156.82	932
1165.94	472
1175.05	582
1184.14	1178
1193.23	1106
1202.3	1122
1211.36	688
1220.41	436
1229.45	386
1238.48	338
1247.5	316
1256.5	326
1265.49	330
1274.48	318
1283.45	314
1292.41	346
1301.36	370
1310.29	404
1319.22	454
1328.13	510
1337.04	462
1345.93	368
1354.81	364
1363.68	332
1372.54	364
1381.38	322
1390.22	260
1399.05	258
1407.86	246
1416.66	242
1425.46	240
1434.24	312
1443.01	442
1451.77	588
1460.52	342
1469.25	252
1477.98	244
1486.7	238
1495.4	280
1504.1	244
1512.78	238
1521.45	244
1530.11	244
1538.76	242
1547.41	244
1556.03	256
1564.65	282
1573.26	334
1581.86	762
1590.45	576
1599.02	1226
1607.59	1266
1616.14	450
1624.69	344
1633.22	284
1641.75	292
1650.26	336
1658.76	264
1667.26	276
1675.74	280
1684.21	260
1692.67	260
1701.12	274
1709.56	270
1717.99	262
1726.41	272
1734.82	254
1743.22	264
1751.61	256
1759.99	262
1768.36	248
1776.71	250
1785.06	262
1793.4	254
1801.73	258
1810.04	262
1818.35	284
1826.65	266
1834.94	272
1843.21	270
1851.48	264
1859.74	274
1867.98	264
1876.22	256
1884.45	274
1892.67	258
1900.87	276
1909.07	290
1917.26	302
1925.43	294
1933.6	268
1941.76	280
1949.91	268
1958.05	294
1966.17	310
1974.29	286
1982.4	284
1990.5	282
1998.59	294
2006.67	278
2014.74	290
2022.8	294
2030.85	292
2038.89	286
2046.92	296
2054.94	290
2062.95	298
2070.96	306
2078.95	288
2086.93	292
2094.91	316
2102.87	296
2110.83	300
2118.77	300
2126.71	302
2134.63	306
2142.55	294
2150.46	300
2158.35	310
2166.24	300
2174.12	308
2181.99	310
2189.85	306
2197.7	324
2205.55	302
2213.38	320
2221.2	318
2229.02	322
2236.82	308
2244.62	312
2252.4	324
2260.18	306
2267.95	314
2275.71	330
2283.46	318
2291.2	318
2298.93	324
2306.65	334
2314.37	334
2322.07	308
2329.77	318
2337.45	326
2345.13	340
2352.8	334
2360.46	316
2368.11	336
2375.75	332
2383.38	324
2391.01	328
2398.62	328
2406.23	316
2413.82	352
2421.41	330
2428.99	340
2436.56	346
2444.12	350
2449.79	336