File: Jesse_Dataset_v2/Pure Raman/Polystyrene/633nm/ps-ppo-7jan25-1,0000-map3_Y05_X02.txt
182.393	1046
192.79	924
203.174	894
213.542	1010
223.897	1056
234.238	832
244.566	518
254.878	360
265.178	354
275.463	318
285.734	270
295.992	200
306.236	220
316.467	246
326.684	244
336.887	234
347.075	208
357.251	220
367.413	208
377.562	234
387.697	254
397.819	272
407.926	340
418.02	288
428.101	238
438.169	212
448.223	204
458.264	180
468.291	180
478.306	168
488.307	162
498.294	170
508.269	180
518.23	186
528.177	200
538.113	248
548.034	250
557.942	244
567.838	238
577.72	238
587.589	194
597.446	206
607.289	236
617.119	398
626.936	538
636.741	202
646.533	184
656.313	170
666.078	166
675.831	180
685.571	168
695.299	160
705.014	210
714.716	210
724.406	268
734.082	266
743.746	370
753.398	428
763.037	462
772.664	420
782.278	452
791.879	620
801.467	604
811.044	384
820.608	294
830.16	268
839.699	354
849.226	338
858.741	280
868.243	298
877.731	266
887.209	280
896.674	264
906.128	358
915.569	308
924.997	248
934.414	242
943.818	270
953.211	248
962.59	296
971.958	336
981.314	442
990.659	1194
999.99	4164
1009.31	1548
1018.62	448
1027.91	1214
1037.2	1394
1046.47	478
1055.73	392
1064.98	422
1074.22	428
1083.44	422
1092.65	424
1101.86	424
1111.05	362
1120.22	308
1129.39	276
1138.54	294
1147.69	410
1156.82	956
1165.94	490
1175.05	600
1184.14	1194
1193.23	1136
1202.3	1136
1211.36	702
1220.41	486
1229.45	426
1238.48	358
1247.5	382
1256.5	358
1265.49	342
1274.48	344
1283.45	332
1292.41	378
1301.36	402
1310.29	436
1319.22	454
1328.13	548
1337.04	498
1345.93	396
1354.81	370
1363.68	380
1372.54	380
1381.38	346
1390.22	292
1399.05	284
1407.86	260
1416.66	280
1425.46	288
1434.24	316
1443.01	482
1451.77	596
1460.52	394
1469.25	282
1477.98	282
1486.7	282
1495.4	284
1504.1	268
1512.78	282
1521.45	268
1530.11	280
1538.76	272
1547.41	252
1556.03	298
1564.65	312
1573.26	400
1581.86	812
1590.45	598
1599.02	1232
1607.59	1282
1616.14	500
1624.69	358
1633.22	328
1641.75	320
1650.26	358
1658.76	304
1667.26	282
1675.74	304
1684.21	260
1692.67	286
1701.12	272
1709.56	282
1717.99	284
1726.41	278
1734.82	292
1743.22	286
1751.61	288
1759.99	306
1768.36	292
1776.71	294
1785.06	278
1793.4	274
1801.73	292
1810.04	290
1818.35	306
1826.65	292
1834.94	300
1843.21	286
1851.48	278
1859.74	282
1867.98	286
1876.22	314
1884.45	300
1892.67	294
1900.87	304
1909.07	306
1917.26	298
1925.43	298
1933.6	300
1941.76	302
1949.91	324
1958.05	328
1966.17	324
1974.29	308
1982.4	322
1990.5	308
1998.59	322
2006.67	312
2014.74	308
2022.8	322
2030.85	304
2038.89	316
2046.92	306
2054.94	318
2062.95	322
2070.96	314
2078.95	318
2086.93	322
2094.91	312
2102.87	310
2110.83	340
2118.77	332
2126.71	314
2134.63	322
2142.55	350
2150.46	308
2158.35	338
2166.24	340
2174.12	316
2181.99	328
2189.85	340
2197.7	316
2205.55	332
2213.38	322
2221.2	334
2229.02	340
2236.82	326
2244.62	314
2252.4	354
2260.18	320
2267.95	324
2275.71	334
2283.46	332
2291.2	334
2298.93	344
2306.65	354
2314.37	358
2322.07	342
2329.77	352
2337.45	330
2345.13	346
2352.8	342
2360.46	356
2368.11	366
2375.75	340
2383.38	354
2391.01	324
2398.62	332
2406.23	340
2413.82	348
2421.41	346
2428.99	376
2436.56	352
2444.12	378
2449.79	364