File: Jesse_Dataset_v2/Pure Raman/Polystyrene/633nm/ps-ppo-7jan25-1,0000-map3_Y05_X00.txt
182.393	1016
192.79	980
203.174	964
213.542	1076
223.897	1082
234.238	860
244.566	550
254.878	386
265.178	338
275.463	352
285.734	294
295.992	244
306.236	244
316.467	258
326.684	274
336.887	238
347.075	238
357.251	228
367.413	236
377.562	238
387.697	282
397.819	282
407.926	358
418.02	296
428.101	260
438.169	248
448.223	208
458.264	200
468.291	194
478.306	192
488.307	192
498.294	198
508.269	216
518.23	208
528.177	242
538.113	272
548.034	268
557.942	264
567.838	258
577.72	254
587.589	228
597.446	230
607.289	300
617.119	420
626.936	572
636.741	230
646.533	192
656.313	182
666.078	164
675.831	196
685.571	178
695.299	194
705.014	224
714.716	226
724.406	318
734.082	300
743.746	412
753.398	434
763.037	502
772.664	466
782.278	476
791.879	674
801.467	654
811.044	406
820.608	314
830.16	280
839.699	378
849.226	372
858.741	310
868.243	318
877.731	312
887.209	320
896.674	310
906.128	388
915.569	332
924.997	280
934.414	278
943.818	284
953.211	284
962.59	332
971.958	368
981.314	466
990.659	1226
999.99	4232
1009.31	1554
1018.62	480
1027.91	1216
1037.2	1430
1046.47	530
1055.73	428
1064.98	430
1074.22	468
1083.44	430
1092.65	444
1101.86	454
1111.05	380
1120.22	324
1129.39	298
1138.54	326
1147.69	424
1156.82	1008
1165.94	532
1175.05	666
1184.14	1254
1193.23	1122
1202.3	1166
1211.36	762
1220.41	492
1229.45	442
1238.48	384
1247.5	398
1256.5	356
1265.49	356
1274.48	356
1283.45	362
1292.41	386
1301.36	408
1310.29	432
1319.22	502
1328.13	558
1337.04	526
1345.93	416
1354.81	378
1363.68	390
1372.54	396
1381.38	344
1390.22	304
1399.05	290
1407.86	298
1416.66	262
1425.46	296
1434.24	340
1443.01	512
1451.77	624
1460.52	392
1469.25	290
1477.98	304
1486.7	278
1495.4	306
1504.1	280
1512.78	288
1521.45	300
1530.11	262
1538.76	286
1547.41	296
1556.03	306
1564.65	316
1573.26	384
1581.86	824
1590.45	618
1599.02	1258
1607.59	1310
1616.14	490
1624.69	374
1633.22	346
1641.75	340
1650.26	364
1658.76	320
1667.26	302
1675.74	300
1684.21	302
1692.67	296
1701.12	298
1709.56	292
1717.99	286
1726.41	284
1734.82	302
1743.22	270
1751.61	284
1759.99	280
1768.36	288
1776.71	302
1785.06	280
1793.4	300
1801.73	270
1810.04	306
1818.35	294
1826.65	298
1834.94	292
1843.21	308
1851.48	302
1859.74	292
1867.98	304
1876.22	310
1884.45	306
1892.67	312
1900.87	302
1909.07	302
1917.26	330
1925.43	318
1933.6	316
1941.76	320
1949.91	338
1958.05	320
1966.17	308
1974.29	314
1982.4	334
1990.5	306
1998.59	322
2006.67	314
2014.74	312
2022.8	306
2030.85	322
2038.89	332
2046.92	330
2054.94	310
2062.95	334
2070.96	334
2078.95	324
2086.93	342
2094.91	318
2102.87	324
2110.83	318
2118.77	346
2126.71	320
2134.63	318
2142.55	350
2150.46	334
2158.35	324
2166.24	328
2174.12	326
2181.99	340
2189.85	318
2197.7	336
2205.55	332
2213.38	330
2221.2	340
2229.02	338
2236.82	344
2244.62	328
2252.4	336
2260.18	336
2267.95	344
2275.71	346
2283.46	334
2291.2	360
2298.93	342
2306.65	360
2314.37	352
2322.07	368
2329.77	352
2337.45	336
2345.13	352
2352.8	342
2360.46	354
2368.11	360
2375.75	342
2383.38	358
2391.01	328
2398.62	356
2406.23	356
2413.82	332
2421.41	350
2428.99	354
2436.56	362
2444.12	356
2449.79	366