File: Jesse_Dataset_v2/Pure Raman/Polystyrene/633nm/ps-ppo-7jan25-1,0000-map3_Y02_X03.txt
182.393	1040
192.79	952
203.174	968
213.542	1046
223.897	1054
234.238	848
244.566	534
254.878	358
265.178	346
275.463	318
285.734	288
295.992	250
306.236	242
316.467	246
326.684	236
336.887	244
347.075	228
357.251	216
367.413	222
377.562	226
387.697	246
397.819	290
407.926	358
418.02	296
428.101	246
438.169	214
448.223	216
458.264	194
468.291	194
478.306	190
488.307	158
498.294	180
508.269	200
518.23	198
528.177	212
538.113	248
548.034	262
557.942	248
567.838	254
577.72	248
587.589	218
597.446	206
607.289	256
617.119	410
626.936	520
636.741	236
646.533	186
656.313	172
666.078	176
675.831	162
685.571	166
695.299	180
705.014	214
714.716	224
724.406	278
734.082	276
743.746	374
753.398	396
763.037	476
772.664	418
782.278	462
791.879	614
801.467	628
811.044	382
820.608	282
830.16	266
839.699	334
849.226	320
858.741	290
868.243	300
877.731	284
887.209	266
896.674	282
906.128	338
915.569	314
924.997	250
934.414	244
943.818	248
953.211	264
962.59	318
971.958	314
981.314	458
990.659	1130
999.99	4146
1009.31	1606
1018.62	448
1027.91	1200
1037.2	1424
1046.47	452
1055.73	382
1064.98	410
1074.22	438
1083.44	432
1092.65	408
1101.86	406
1111.05	360
1120.22	300
1129.39	268
1138.54	298
1147.69	398
1156.82	978
1165.94	508
1175.05	644
1184.14	1182
1193.23	1098
1202.3	1124
1211.36	728
1220.41	474
1229.45	434
1238.48	352
1247.5	344
1256.5	336
1265.49	332
1274.48	346
1283.45	354
1292.41	368
1301.36	388
1310.29	424
1319.22	468
1328.13	514
1337.04	492
1345.93	406
1354.81	378
1363.68	364
1372.54	378
1381.38	344
1390.22	264
1399.05	268
1407.86	270
1416.66	264
1425.46	268
1434.24	312
1443.01	488
1451.77	600
1460.52	366
1469.25	282
1477.98	284
1486.7	268
1495.4	294
1504.1	262
1512.78	272
1521.45	250
1530.11	276
1538.76	264
1547.41	288
1556.03	284
1564.65	288
1573.26	364
1581.86	794
1590.45	604
1599.02	1222
1607.59	1318
1616.14	482
1624.69	382
1633.22	306
1641.75	300
1650.26	320
1658.76	282
1667.26	284
1675.74	290
1684.21	284
1692.67	284
1701.12	276
1709.56	292
1717.99	264
1726.41	278
1734.82	272
1743.22	282
1751.61	276
1759.99	274
1768.36	272
1776.71	272
1785.06	288
1793.4	288
1801.73	292
1810.04	276
1818.35	292
1826.65	276
1834.94	278
1843.21	294
1851.48	280
1859.74	296
1867.98	288
1876.22	282
1884.45	276
1892.67	298
1900.87	282
1909.07	296
1917.26	302
1925.43	298
1933.6	290
1941.76	314
1949.91	316
1958.05	304
1966.17	304
1974.29	294
1982.4	292
1990.5	304
1998.59	286
2006.67	310
2014.74	282
2022.8	308
2030.85	324
2038.89	304
2046.92	306
2054.94	316
2062.95	316
2070.96	308
2078.95	308
2086.93	322
2094.91	334
2102.87	326
2110.83	326
2118.77	324
2126.71	318
2134.63	336
2142.55	328
2150.46	332
2158.35	328
2166.24	330
2174.12	346
2181.99	324
2189.85	330
2197.7	316
2205.55	334
2213.38	330
2221.2	322
2229.02	320
2236.82	334
2244.62	336
2252.4	334
2260.18	338
2267.95	326
2275.71	326
2283.46	338
2291.2	328
2298.93	344
2306.65	322
2314.37	350
2322.07	332
2329.77	350
2337.45	334
2345.13	316
2352.8	344
2360.46	342
2368.11	334
2375.75	336
2383.38	352
2391.01	342
2398.62	342
2406.23	352
2413.82	348
2421.41	358
2428.99	350
2436.56	358
2444.12	374
2449.79	358