File: Jesse_Dataset_v2/Pure Raman/Polystyrene/633nm/ps-ppo-7jan25-1,0000-map3_Y04_X04.txt
182.393	1042
192.79	960
203.174	992
213.542	1058
223.897	1082
234.238	828
244.566	520
254.878	372
265.178	368
275.463	338
285.734	296
295.992	248
306.236	252
316.467	258
326.684	232
336.887	242
347.075	228
357.251	218
367.413	218
377.562	248
387.697	268
397.819	296
407.926	332
418.02	268
428.101	248
438.169	222
448.223	218
458.264	196
468.291	174
478.306	188
488.307	166
498.294	186
508.269	196
518.23	196
528.177	198
538.113	244
548.034	248
557.942	242
567.838	232
577.72	242
587.589	212
597.446	222
607.289	266
617.119	426
626.936	532
636.741	222
646.533	178
656.313	176
666.078	168
675.831	180
685.571	176
695.299	182
705.014	204
714.716	218
724.406	286
734.082	288
743.746	374
753.398	422
763.037	490
772.664	422
782.278	470
791.879	642
801.467	590
811.044	402
820.608	300
830.16	278
839.699	340
849.226	310
858.741	308
868.243	300
877.731	292
887.209	276
896.674	280
906.128	356
915.569	338
924.997	248
934.414	264
943.818	264
953.211	276
962.59	296
971.958	322
981.314	464
990.659	1180
999.99	4130
1009.31	1586
1018.62	446
1027.91	1176
1037.2	1394
1046.47	472
1055.73	400
1064.98	410
1074.22	448
1083.44	418
1092.65	420
1101.86	430
1111.05	346
1120.22	304
1129.39	282
1138.54	288
1147.69	422
1156.82	998
1165.94	522
1175.05	636
1184.14	1220
1193.23	1122
1202.3	1136
1211.36	742
1220.41	500
1229.45	432
1238.48	360
1247.5	374
1256.5	360
1265.49	340
1274.48	338
1283.45	354
1292.41	372
1301.36	400
1310.29	444
1319.22	486
1328.13	534
1337.04	492
1345.93	404
1354.81	358
1363.68	380
1372.54	370
1381.38	346
1390.22	262
1399.05	258
1407.86	270
1416.66	280
1425.46	268
1434.24	330
1443.01	454
1451.77	594
1460.52	374
1469.25	284
1477.98	286
1486.7	266
1495.4	290
1504.1	242
1512.78	240
1521.45	258
1530.11	262
1538.76	256
1547.41	270
1556.03	292
1564.65	298
1573.26	352
1581.86	786
1590.45	580
1599.02	1190
1607.59	1274
1616.14	454
1624.69	350
1633.22	324
1641.75	324
1650.26	332
1658.76	300
1667.26	280
1675.74	282
1684.21	286
1692.67	262
1701.12	296
1709.56	272
1717.99	274
1726.41	268
1734.82	282
1743.22	252
1751.61	278
1759.99	282
1768.36	276
1776.71	266
1785.06	292
1793.4	260
1801.73	278
1810.04	270
1818.35	284
1826.65	290
1834.94	276
1843.21	292
1851.48	284
1859.74	284
1867.98	284
1876.22	296
1884.45	280
1892.67	288
1900.87	296
1909.07	278
1917.26	294
1925.43	312
1933.6	302
1941.76	288
1949.91	302
1958.05	294
1966.17	314
1974.29	306
1982.4	312
1990.5	318
1998.59	310
2006.67	304
2014.74	308
2022.8	320
2030.85	288
2038.89	314
2046.92	298
2054.94	330
2062.95	306
2070.96	322
2078.95	322
2086.93	312
2094.91	318
2102.87	294
2110.83	312
2118.77	326
2126.71	308
2134.63	322
2142.55	330
2150.46	344
2158.35	332
2166.24	330
2174.12	324
2181.99	328
2189.85	338
2197.7	334
2205.55	340
2213.38	328
2221.2	318
2229.02	320
2236.82	326
2244.62	336
2252.4	324
2260.18	338
2267.95	334
2275.71	332
2283.46	354
2291.2	340
2298.93	350
2306.65	336
2314.37	348
2322.07	344
2329.77	354
2337.45	340
2345.13	348
2352.8	360
2360.46	364
2368.11	352
2375.75	364
2383.38	356
2391.01	346
2398.62	324
2406.23	360
2413.82	342
2421.41	358
2428.99	364
2436.56	366
2444.12	362
2449.79	360