File: Jesse_Dataset_v2/Pure Raman/Polystyrene/633nm/ps-ppo-7jan25-1,0000-map3_Y06_X01.txt
182.393	1080
192.79	962
203.174	990
213.542	1054
223.897	1092
234.238	842
244.566	512
254.878	414
265.178	344
275.463	342
285.734	290
295.992	272
306.236	260
316.467	258
326.684	252
336.887	262
347.075	238
357.251	238
367.413	246
377.562	264
387.697	276
397.819	298
407.926	358
418.02	304
428.101	254
438.169	248
448.223	222
458.264	212
468.291	208
478.306	210
488.307	196
498.294	204
508.269	222
518.23	202
528.177	232
538.113	258
548.034	274
557.942	276
567.838	256
577.72	250
587.589	244
597.446	238
607.289	304
617.119	452
626.936	562
636.741	236
646.533	208
656.313	214
666.078	202
675.831	206
685.571	206
695.299	210
705.014	246
714.716	260
724.406	356
734.082	294
743.746	434
753.398	466
763.037	490
772.664	460
782.278	472
791.879	712
801.467	668
811.044	414
820.608	334
830.16	296
839.699	358
849.226	360
858.741	330
868.243	346
877.731	330
887.209	302
896.674	340
906.128	376
915.569	334
924.997	280
934.414	288
943.818	316
953.211	300
962.59	338
971.958	352
981.314	468
990.659	1176
999.99	4262
1009.31	1610
1018.62	486
1027.91	1198
1037.2	1416
1046.47	480
1055.73	402
1064.98	448
1074.22	474
1083.44	452
1092.65	428
1101.86	436
1111.05	346
1120.22	332
1129.39	296
1138.54	294
1147.69	426
1156.82	984
1165.94	534
1175.05	650
1184.14	1234
1193.23	1164
1202.3	1188
1211.36	744
1220.41	520
1229.45	430
1238.48	390
1247.5	376
1256.5	358
1265.49	358
1274.48	352
1283.45	366
1292.41	380
1301.36	384
1310.29	416
1319.22	464
1328.13	504
1337.04	506
1345.93	406
1354.81	366
1363.68	346
1372.54	372
1381.38	368
1390.22	272
1399.05	268
1407.86	270
1416.66	270
1425.46	258
1434.24	332
1443.01	494
1451.77	612
1460.52	400
1469.25	298
1477.98	286
1486.7	258
1495.4	294
1504.1	256
1512.78	264
1521.45	268
1530.11	292
1538.76	292
1547.41	284
1556.03	278
1564.65	310
1573.26	368
1581.86	810
1590.45	594
1599.02	1226
1607.59	1284
1616.14	482
1624.69	368
1633.22	336
1641.75	330
1650.26	338
1658.76	312
1667.26	308
1675.74	320
1684.21	334
1692.67	308
1701.12	300
1709.56	302
1717.99	298
1726.41	286
1734.82	304
1743.22	272
1751.61	284
1759.99	294
1768.36	304
1776.71	282
1785.06	292
1793.4	314
1801.73	296
1810.04	312
1818.35	308
1826.65	320
1834.94	294
1843.21	290
1851.48	312
1859.74	300
1867.98	306
1876.22	310
1884.45	310
1892.67	326
1900.87	328
1909.07	316
1917.26	342
1925.43	332
1933.6	334
1941.76	310
1949.91	318
1958.05	332
1966.17	334
1974.29	338
1982.4	328
1990.5	318
1998.59	300
2006.67	336
2014.74	304
2022.8	338
2030.85	330
2038.89	328
2046.92	332
2054.94	330
2062.95	326
2070.96	330
2078.95	322
2086.93	326
2094.91	320
2102.87	354
2110.83	314
2118.77	350
2126.71	352
2134.63	346
2142.55	336
2150.46	346
2158.35	318
2166.24	360
2174.12	340
2181.99	346
2189.85	354
2197.7	354
2205.55	322
2213.38	332
2221.2	344
2229.02	334
2236.82	340
2244.62	332
2252.4	346
2260.18	348
2267.95	346
2275.71	348
2283.46	316
2291.2	356
2298.93	340
2306.65	354
2314.37	338
2322.07	344
2329.77	362
2337.45	350
2345.13	340
2352.8	334
2360.46	362
2368.11	352
2375.75	370
2383.38	354
2391.01	332
2398.62	358
2406.23	362
2413.82	342
2421.41	342
2428.99	358
2436.56	364
2444.12	366
2449.79	368