File: Jesse_Dataset_v2/Pure Raman/Polypropylene oxide/785nm/ps-ppo-6jan25-0,0000-map2_Y07_X10.txt
204.377	388
211.048	358
217.712	342
224.369	464
231.019	892
237.661	912
244.297	630
250.924	396
257.546	266
264.16	202
270.766	184
277.365	176
283.958	222
290.543	370
297.121	418
303.693	340
310.256	260
316.813	228
323.362	224
329.905	258
336.441	272
342.969	210
349.491	194
356.006	214
362.513	192
369.014	200
375.508	198
381.994	148
388.473	142
394.947	130
401.412	126
407.871	150
414.323	210
420.768	174
427.206	112
433.637	100
440.062	90
446.479	88
452.89	78
459.293	90
465.691	98
472.081	148
478.463	224
484.84	292
491.21	172
497.573	112
503.929	92
510.279	150
516.621	168
522.957	156
529.287	214
535.609	404
541.925	394
548.234	220
554.536	210
560.832	402
567.12	1470
573.403	1986
579.679	480
585.948	320
592.211	266
598.466	206
604.715	116
610.958	98
617.194	94
623.424	104
629.647	128
635.864	142
642.074	128
648.276	100
654.473	92
660.664	68
666.847	64
673.025	64
679.195	68
685.36	60
691.517	64
697.669	60
703.814	56
709.953	74
716.085	108
722.21	80
728.33	68
734.443	82
740.549	86
746.65	150
752.743	114
758.831	88
764.912	72
770.986	68
777.055	74
783.117	70
789.173	66
795.222	68
801.265	66
807.302	74
813.333	72
819.357	80
825.376	128
831.387	482
837.392	234
843.392	104
849.386	98
855.372	90
861.353	80
867.328	74
873.296	64
879.258	58
885.214	54
891.164	54
897.108	56
903.046	56
908.977	64
914.903	58
920.822	54
926.735	54
932.643	70
938.543	70
944.439	96
950.328	150
956.21	296
962.088	350
967.958	228
973.824	142
979.682	84
985.534	74
991.382	74
997.222	60
1003.06	68
1008.89	68
1014.71	66
1020.53	80
1026.34	88
1032.14	100
1037.94	98
1043.73	92
1049.52	76
1055.3	62
1061.08	66
1066.85	62
1072.61	56
1078.37	68
1084.12	72
1089.87	66
1095.61	70
1101.34	74
1107.07	142
1112.8	354
1118.51	156
1124.22	106
1129.93	88
1135.63	70
1141.32	82
1147.01	80
1152.69	66
1158.37	84
1164.04	94
1169.71	78
1175.37	102
1181.02	136
1186.67	244
1192.31	170
1197.95	148
1203.58	154
1209.2	124
1214.82	90
1220.44	86
1226.05	114
1231.65	132
1237.25	98
1242.84	90
1248.42	82
1254	80
1259.58	84
1265.15	94
1270.71	98
1276.27	112
1281.82	120
1287.37	146
1292.91	200
1298.45	350
1303.98	742
1309.5	506
1315.02	240
1320.53	194
1326.04	184
1331.54	168
1337.04	146
1342.53	148
1348.02	166
1353.5	168
1358.98	152
1364.45	142
1369.91	164
1375.37	342
1380.82	406
1386.27	266
1391.71	168
1397.15	138
1402.58	136
1408.01	132
1413.43	146
1418.85	160
1424.26	176
1429.66	188
1435.06	208
1440.46	214
1445.85	198
1451.23	168
1456.61	156
1461.98	154
1467.35	160
1472.71	146
1478.07	144
1483.42	128
1488.77	120
1494.11	124
1499.45	116
1504.78	104
1510.11	108
1515.43	102
1520.74	108
1526.05	106
1531.36	106
1536.66	98
1541.95	100
1547.24	118
1552.52	102
1557.8	116
1563.08	106
1568.35	116
1573.61	124
1578.87	144
1584.12	166
1589.37	218
1594.61	336
1599.85	452
1605.08	468
1610.31	336
1615.53	254
1620.75	166
1625.96	126
1631.17	106
1636.37	94
1641.57	82
1646.76	86
1651.95	84
1657.13	84
1662.31	76
1667.48	84
1672.65	72
1677.81	78
1682.97	74
1688.12	76
1693.27	76
1698.41	74
1702.26	78