File: Jesse_Dataset_v2/Pure Raman/Polypropylene oxide/785nm/ps-ppo-6jan25-0,0000-map2_Y05_X08.txt
204.377	382
211.048	350
217.712	344
224.369	486
231.019	924
237.661	924
244.297	614
250.924	408
257.546	270
264.16	198
270.766	174
277.365	178
283.958	242
290.543	400
297.121	434
303.693	346
310.256	264
316.813	226
323.362	216
329.905	268
336.441	262
342.969	222
349.491	216
356.006	224
362.513	192
369.014	190
375.508	188
381.994	142
388.473	124
394.947	130
401.412	128
407.871	154
414.323	220
420.768	162
427.206	110
433.637	106
440.062	88
446.479	76
452.89	74
459.293	86
465.691	110
472.081	148
478.463	222
484.84	302
491.21	166
497.573	112
503.929	108
510.279	164
516.621	154
522.957	166
529.287	224
535.609	398
541.925	426
548.234	236
554.536	204
560.832	414
567.12	1476
573.403	1986
579.679	516
585.948	342
592.211	270
598.466	218
604.715	120
610.958	96
617.194	88
623.424	120
629.647	138
635.864	158
642.074	122
648.276	104
654.473	78
660.664	78
666.847	66
673.025	62
679.195	62
685.36	64
691.517	62
697.669	56
703.814	60
709.953	80
716.085	94
722.21	80
728.33	80
734.443	84
740.549	84
746.65	148
752.743	110
758.831	94
764.912	68
770.986	66
777.055	80
783.117	80
789.173	68
795.222	64
801.265	66
807.302	72
813.333	68
819.357	92
825.376	130
831.387	504
837.392	254
843.392	98
849.386	102
855.372	98
861.353	76
867.328	76
873.296	58
879.258	64
885.214	62
891.164	54
897.108	58
903.046	66
908.977	58
914.903	60
920.822	52
926.735	60
932.643	66
938.543	68
944.439	82
950.328	156
956.21	310
962.088	374
967.958	234
973.824	140
979.682	86
985.534	68
991.382	76
997.222	64
1003.06	62
1008.89	66
1014.71	68
1020.53	64
1026.34	94
1032.14	100
1037.94	90
1043.73	82
1049.52	70
1055.3	74
1061.08	64
1066.85	60
1072.61	62
1078.37	64
1084.12	64
1089.87	66
1095.61	72
1101.34	82
1107.07	138
1112.8	368
1118.51	164
1124.22	98
1129.93	86
1135.63	86
1141.32	84
1147.01	74
1152.69	76
1158.37	84
1164.04	86
1169.71	80
1175.37	100
1181.02	132
1186.67	234
1192.31	176
1197.95	154
1203.58	196
1209.2	124
1214.82	100
1220.44	92
1226.05	98
1231.65	132
1237.25	102
1242.84	84
1248.42	96
1254	84
1259.58	96
1265.15	88
1270.71	102
1276.27	114
1281.82	130
1287.37	164
1292.91	192
1298.45	358
1303.98	762
1309.5	542
1315.02	260
1320.53	200
1326.04	180
1331.54	162
1337.04	130
1342.53	162
1348.02	166
1353.5	172
1358.98	146
1364.45	158
1369.91	180
1375.37	346
1380.82	420
1386.27	280
1391.71	154
1397.15	130
1402.58	144
1408.01	144
1413.43	140
1418.85	156
1424.26	182
1429.66	192
1435.06	188
1440.46	220
1445.85	198
1451.23	174
1456.61	156
1461.98	162
1467.35	148
1472.71	142
1478.07	158
1483.42	136
1488.77	114
1494.11	124
1499.45	124
1504.78	116
1510.11	114
1515.43	112
1520.74	108
1526.05	108
1531.36	104
1536.66	110
1541.95	102
1547.24	96
1552.52	108
1557.8	122
1563.08	112
1568.35	118
1573.61	126
1578.87	158
1584.12	184
1589.37	256
1594.61	354
1599.85	488
1605.08	458
1610.31	340
1615.53	240
1620.75	164
1625.96	140
1631.17	122
1636.37	106
1641.57	94
1646.76	90
1651.95	88
1657.13	86
1662.31	78
1667.48	76
1672.65	80
1677.81	78
1682.97	80
1688.12	76
1693.27	88
1698.41	80
1702.26	74