File: Jesse_Dataset_v2/Pure Raman/Polypropylene oxide/785nm/ps-ppo-6jan25-0,0000-map2_Y04_X06.txt
204.377	388
211.048	338
217.712	320
224.369	488
231.019	898
237.661	894
244.297	594
250.924	402
257.546	280
264.16	200
270.766	168
277.365	182
283.958	224
290.543	366
297.121	440
303.693	322
310.256	240
316.813	238
323.362	230
329.905	250
336.441	254
342.969	214
349.491	192
356.006	220
362.513	180
369.014	182
375.508	188
381.994	144
388.473	136
394.947	108
401.412	116
407.871	142
414.323	182
420.768	160
427.206	116
433.637	98
440.062	80
446.479	80
452.89	76
459.293	80
465.691	96
472.081	148
478.463	230
484.84	274
491.21	182
497.573	110
503.929	98
510.279	152
516.621	158
522.957	156
529.287	224
535.609	398
541.925	384
548.234	210
554.536	196
560.832	398
567.12	1424
573.403	1932
579.679	474
585.948	322
592.211	256
598.466	200
604.715	120
610.958	94
617.194	84
623.424	106
629.647	134
635.864	138
642.074	122
648.276	102
654.473	80
660.664	72
666.847	66
673.025	64
679.195	62
685.36	58
691.517	56
697.669	52
703.814	56
709.953	76
716.085	96
722.21	74
728.33	74
734.443	76
740.549	86
746.65	140
752.743	110
758.831	94
764.912	64
770.986	68
777.055	70
783.117	78
789.173	66
795.222	60
801.265	64
807.302	76
813.333	74
819.357	88
825.376	128
831.387	494
837.392	240
843.392	104
849.386	98
855.372	78
861.353	82
867.328	70
873.296	58
879.258	58
885.214	56
891.164	50
897.108	54
903.046	56
908.977	48
914.903	52
920.822	58
926.735	62
932.643	66
938.543	72
944.439	80
950.328	148
956.21	282
962.088	328
967.958	212
973.824	130
979.682	78
985.534	70
991.382	74
997.222	62
1003.06	60
1008.89	64
1014.71	68
1020.53	78
1026.34	82
1032.14	100
1037.94	82
1043.73	72
1049.52	70
1055.3	68
1061.08	60
1066.85	62
1072.61	54
1078.37	66
1084.12	62
1089.87	68
1095.61	64
1101.34	80
1107.07	138
1112.8	352
1118.51	150
1124.22	106
1129.93	76
1135.63	82
1141.32	86
1147.01	72
1152.69	70
1158.37	78
1164.04	86
1169.71	74
1175.37	92
1181.02	136
1186.67	230
1192.31	158
1197.95	136
1203.58	156
1209.2	124
1214.82	92
1220.44	90
1226.05	106
1231.65	128
1237.25	100
1242.84	78
1248.42	82
1254	82
1259.58	90
1265.15	92
1270.71	94
1276.27	104
1281.82	118
1287.37	150
1292.91	194
1298.45	342
1303.98	758
1309.5	512
1315.02	252
1320.53	190
1326.04	172
1331.54	166
1337.04	140
1342.53	156
1348.02	162
1353.5	158
1358.98	138
1364.45	142
1369.91	184
1375.37	326
1380.82	400
1386.27	268
1391.71	156
1397.15	136
1402.58	130
1408.01	142
1413.43	140
1418.85	160
1424.26	178
1429.66	182
1435.06	184
1440.46	208
1445.85	188
1451.23	160
1456.61	152
1461.98	158
1467.35	156
1472.71	146
1478.07	146
1483.42	130
1488.77	124
1494.11	116
1499.45	114
1504.78	118
1510.11	108
1515.43	102
1520.74	106
1526.05	110
1531.36	98
1536.66	102
1541.95	106
1547.24	102
1552.52	98
1557.8	100
1563.08	116
1568.35	116
1573.61	132
1578.87	132
1584.12	172
1589.37	236
1594.61	326
1599.85	472
1605.08	430
1610.31	328
1615.53	248
1620.75	160
1625.96	120
1631.17	110
1636.37	92
1641.57	98
1646.76	88
1651.95	90
1657.13	82
1662.31	80
1667.48	82
1672.65	74
1677.81	72
1682.97	80
1688.12	88
1693.27	82
1698.41	88
1702.26	70