File: Jesse_Dataset_v2/Pure Raman/Polypropylene oxide/785nm/ps-ppo-6jan25-0,0000-map2_Y06_X06.txt
204.377	360
211.048	336
217.712	334
224.369	480
231.019	910
237.661	876
244.297	616
250.924	384
257.546	260
264.16	208
270.766	162
277.365	170
283.958	232
290.543	368
297.121	410
303.693	338
310.256	252
316.813	234
323.362	210
329.905	258
336.441	252
342.969	208
349.491	200
356.006	220
362.513	184
369.014	172
375.508	174
381.994	152
388.473	120
394.947	116
401.412	120
407.871	142
414.323	206
420.768	162
427.206	110
433.637	96
440.062	86
446.479	72
452.89	80
459.293	74
465.691	98
472.081	142
478.463	216
484.84	274
491.21	164
497.573	118
503.929	96
510.279	142
516.621	158
522.957	150
529.287	208
535.609	400
541.925	406
548.234	224
554.536	178
560.832	402
567.12	1446
573.403	1968
579.679	490
585.948	340
592.211	260
598.466	198
604.715	114
610.958	92
617.194	86
623.424	108
629.647	122
635.864	158
642.074	118
648.276	98
654.473	84
660.664	66
666.847	58
673.025	56
679.195	56
685.36	52
691.517	54
697.669	54
703.814	64
709.953	80
716.085	96
722.21	74
728.33	72
734.443	78
740.549	84
746.65	142
752.743	112
758.831	90
764.912	64
770.986	62
777.055	76
783.117	68
789.173	60
795.222	64
801.265	70
807.302	72
813.333	68
819.357	84
825.376	132
831.387	468
837.392	240
843.392	100
849.386	90
855.372	80
861.353	76
867.328	70
873.296	64
879.258	52
885.214	62
891.164	54
897.108	52
903.046	56
908.977	54
914.903	58
920.822	54
926.735	56
932.643	66
938.543	68
944.439	92
950.328	148
956.21	282
962.088	338
967.958	212
973.824	130
979.682	84
985.534	74
991.382	74
997.222	64
1003.06	54
1008.89	62
1014.71	62
1020.53	76
1026.34	84
1032.14	94
1037.94	90
1043.73	82
1049.52	70
1055.3	60
1061.08	58
1066.85	52
1072.61	54
1078.37	60
1084.12	62
1089.87	58
1095.61	70
1101.34	70
1107.07	142
1112.8	356
1118.51	154
1124.22	94
1129.93	84
1135.63	76
1141.32	80
1147.01	70
1152.69	70
1158.37	86
1164.04	92
1169.71	82
1175.37	90
1181.02	146
1186.67	232
1192.31	158
1197.95	156
1203.58	172
1209.2	114
1214.82	94
1220.44	80
1226.05	108
1231.65	126
1237.25	96
1242.84	84
1248.42	80
1254	80
1259.58	76
1265.15	90
1270.71	92
1276.27	98
1281.82	122
1287.37	154
1292.91	178
1298.45	346
1303.98	698
1309.5	524
1315.02	246
1320.53	196
1326.04	184
1331.54	170
1337.04	130
1342.53	148
1348.02	162
1353.5	162
1358.98	134
1364.45	132
1369.91	170
1375.37	328
1380.82	406
1386.27	272
1391.71	170
1397.15	134
1402.58	134
1408.01	132
1413.43	140
1418.85	138
1424.26	176
1429.66	184
1435.06	196
1440.46	208
1445.85	188
1451.23	158
1456.61	152
1461.98	152
1467.35	154
1472.71	138
1478.07	140
1483.42	130
1488.77	118
1494.11	114
1499.45	114
1504.78	108
1510.11	106
1515.43	112
1520.74	110
1526.05	104
1531.36	106
1536.66	116
1541.95	106
1547.24	108
1552.52	102
1557.8	98
1563.08	114
1568.35	118
1573.61	130
1578.87	144
1584.12	170
1589.37	236
1594.61	336
1599.85	456
1605.08	452
1610.31	352
1615.53	246
1620.75	174
1625.96	122
1631.17	100
1636.37	104
1641.57	100
1646.76	88
1651.95	72
1657.13	84
1662.31	72
1667.48	78
1672.65	72
1677.81	74
1682.97	78
1688.12	80
1693.27	80
1698.41	76
1702.26	84