File: Jesse_Dataset_v2/Pure Raman/Polypropylene oxide/785nm/ps-ppo-6jan25-0,0000-map2_Y05_X06.txt
204.377	372
211.048	336
217.712	324
224.369	476
231.019	882
237.661	898
244.297	628
250.924	372
257.546	260
264.16	192
270.766	184
277.365	176
283.958	220
290.543	350
297.121	396
303.693	308
310.256	258
316.813	222
323.362	220
329.905	240
336.441	252
342.969	202
349.491	200
356.006	206
362.513	176
369.014	182
375.508	180
381.994	154
388.473	134
394.947	122
401.412	112
407.871	154
414.323	196
420.768	150
427.206	110
433.637	88
440.062	88
446.479	68
452.89	72
459.293	74
465.691	104
472.081	144
478.463	216
484.84	294
491.21	156
497.573	108
503.929	84
510.279	158
516.621	166
522.957	146
529.287	224
535.609	390
541.925	392
548.234	198
554.536	192
560.832	410
567.12	1374
573.403	1896
579.679	486
585.948	334
592.211	252
598.466	196
604.715	112
610.958	96
617.194	86
623.424	98
629.647	128
635.864	140
642.074	116
648.276	104
654.473	82
660.664	68
666.847	62
673.025	56
679.195	58
685.36	62
691.517	54
697.669	54
703.814	56
709.953	80
716.085	94
722.21	74
728.33	72
734.443	80
740.549	84
746.65	128
752.743	120
758.831	94
764.912	64
770.986	68
777.055	74
783.117	82
789.173	68
795.222	62
801.265	64
807.302	80
813.333	66
819.357	78
825.376	118
831.387	478
837.392	224
843.392	106
849.386	98
855.372	86
861.353	70
867.328	74
873.296	58
879.258	66
885.214	62
891.164	54
897.108	54
903.046	52
908.977	54
914.903	50
920.822	56
926.735	52
932.643	60
938.543	66
944.439	94
950.328	138
956.21	286
962.088	340
967.958	204
973.824	126
979.682	74
985.534	76
991.382	72
997.222	56
1003.06	50
1008.89	54
1014.71	66
1020.53	66
1026.34	70
1032.14	88
1037.94	96
1043.73	80
1049.52	66
1055.3	56
1061.08	58
1066.85	56
1072.61	60
1078.37	56
1084.12	64
1089.87	62
1095.61	66
1101.34	76
1107.07	134
1112.8	342
1118.51	154
1124.22	92
1129.93	78
1135.63	80
1141.32	82
1147.01	76
1152.69	64
1158.37	74
1164.04	86
1169.71	74
1175.37	90
1181.02	144
1186.67	230
1192.31	160
1197.95	144
1203.58	152
1209.2	126
1214.82	86
1220.44	96
1226.05	110
1231.65	130
1237.25	92
1242.84	74
1248.42	78
1254	80
1259.58	82
1265.15	94
1270.71	92
1276.27	94
1281.82	122
1287.37	138
1292.91	204
1298.45	330
1303.98	722
1309.5	478
1315.02	256
1320.53	194
1326.04	174
1331.54	172
1337.04	132
1342.53	142
1348.02	142
1353.5	158
1358.98	154
1364.45	138
1369.91	164
1375.37	336
1380.82	408
1386.27	266
1391.71	164
1397.15	126
1402.58	130
1408.01	132
1413.43	138
1418.85	160
1424.26	180
1429.66	190
1435.06	204
1440.46	204
1445.85	200
1451.23	174
1456.61	158
1461.98	154
1467.35	144
1472.71	136
1478.07	138
1483.42	136
1488.77	120
1494.11	110
1499.45	114
1504.78	110
1510.11	114
1515.43	104
1520.74	104
1526.05	92
1531.36	112
1536.66	106
1541.95	94
1547.24	98
1552.52	108
1557.8	116
1563.08	106
1568.35	110
1573.61	132
1578.87	132
1584.12	168
1589.37	228
1594.61	318
1599.85	414
1605.08	432
1610.31	338
1615.53	238
1620.75	174
1625.96	124
1631.17	102
1636.37	98
1641.57	74
1646.76	80
1651.95	86
1657.13	82
1662.31	72
1667.48	76
1672.65	76
1677.81	78
1682.97	72
1688.12	76
1693.27	82
1698.41	66
1702.26	70