File: Jesse_Dataset_v2/Pure Raman/Polypropylene oxide/785nm/ps-ppo-6jan25-0,0000-map2_Y07_X07.txt
204.377	380
211.048	334
217.712	336
224.369	474
231.019	866
237.661	906
244.297	622
250.924	400
257.546	270
264.16	206
270.766	180
277.365	174
283.958	234
290.543	370
297.121	414
303.693	322
310.256	266
316.813	214
323.362	234
329.905	244
336.441	256
342.969	206
349.491	200
356.006	216
362.513	184
369.014	190
375.508	180
381.994	148
388.473	138
394.947	118
401.412	126
407.871	144
414.323	208
420.768	168
427.206	124
433.637	96
440.062	88
446.479	74
452.89	82
459.293	76
465.691	102
472.081	150
478.463	234
484.84	294
491.21	172
497.573	116
503.929	102
510.279	156
516.621	178
522.957	158
529.287	224
535.609	386
541.925	420
548.234	196
554.536	216
560.832	414
567.12	1426
573.403	1970
579.679	480
585.948	330
592.211	276
598.466	186
604.715	118
610.958	88
617.194	94
623.424	98
629.647	128
635.864	152
642.074	118
648.276	98
654.473	84
660.664	72
666.847	66
673.025	60
679.195	60
685.36	64
691.517	64
697.669	56
703.814	62
709.953	74
716.085	96
722.21	86
728.33	76
734.443	76
740.549	92
746.65	148
752.743	124
758.831	84
764.912	72
770.986	70
777.055	80
783.117	82
789.173	72
795.222	56
801.265	62
807.302	72
813.333	70
819.357	84
825.376	132
831.387	484
837.392	238
843.392	90
849.386	92
855.372	88
861.353	78
867.328	66
873.296	70
879.258	68
885.214	52
891.164	58
897.108	52
903.046	56
908.977	62
914.903	60
920.822	54
926.735	60
932.643	60
938.543	64
944.439	94
950.328	150
956.21	298
962.088	334
967.958	206
973.824	136
979.682	80
985.534	68
991.382	70
997.222	62
1003.06	62
1008.89	60
1014.71	66
1020.53	76
1026.34	90
1032.14	98
1037.94	94
1043.73	80
1049.52	66
1055.3	64
1061.08	66
1066.85	64
1072.61	60
1078.37	60
1084.12	66
1089.87	66
1095.61	64
1101.34	76
1107.07	144
1112.8	332
1118.51	152
1124.22	102
1129.93	84
1135.63	78
1141.32	90
1147.01	72
1152.69	72
1158.37	88
1164.04	82
1169.71	82
1175.37	96
1181.02	134
1186.67	236
1192.31	172
1197.95	148
1203.58	180
1209.2	132
1214.82	84
1220.44	86
1226.05	116
1231.65	134
1237.25	94
1242.84	82
1248.42	78
1254	82
1259.58	94
1265.15	100
1270.71	102
1276.27	110
1281.82	124
1287.37	156
1292.91	180
1298.45	356
1303.98	768
1309.5	508
1315.02	256
1320.53	188
1326.04	178
1331.54	166
1337.04	148
1342.53	150
1348.02	158
1353.5	162
1358.98	130
1364.45	156
1369.91	172
1375.37	342
1380.82	434
1386.27	268
1391.71	148
1397.15	148
1402.58	134
1408.01	142
1413.43	134
1418.85	148
1424.26	186
1429.66	174
1435.06	200
1440.46	192
1445.85	194
1451.23	168
1456.61	160
1461.98	142
1467.35	136
1472.71	142
1478.07	140
1483.42	134
1488.77	118
1494.11	114
1499.45	118
1504.78	118
1510.11	106
1515.43	104
1520.74	102
1526.05	102
1531.36	112
1536.66	98
1541.95	100
1547.24	108
1552.52	104
1557.8	110
1563.08	116
1568.35	110
1573.61	130
1578.87	138
1584.12	162
1589.37	246
1594.61	326
1599.85	450
1605.08	430
1610.31	346
1615.53	244
1620.75	170
1625.96	118
1631.17	108
1636.37	90
1641.57	90
1646.76	86
1651.95	90
1657.13	76
1662.31	80
1667.48	78
1672.65	76
1677.81	76
1682.97	74
1688.12	74
1693.27	70
1698.41	76
1702.26	78