File: Jesse_Dataset_v2/Pure Raman/Polypropylene oxide/785nm/ps-ppo-6jan25-0,0000-map2_Y00_X06.txt
204.377	378
211.048	362
217.712	344
224.369	496
231.019	906
237.661	946
244.297	646
250.924	404
257.546	274
264.16	206
270.766	190
277.365	188
283.958	224
290.543	388
297.121	440
303.693	346
310.256	258
316.813	246
323.362	242
329.905	262
336.441	268
342.969	224
349.491	216
356.006	236
362.513	202
369.014	216
375.508	190
381.994	164
388.473	136
394.947	130
401.412	124
407.871	150
414.323	224
420.768	182
427.206	130
433.637	104
440.062	88
446.479	92
452.89	80
459.293	80
465.691	118
472.081	150
478.463	224
484.84	298
491.21	174
497.573	114
503.929	96
510.279	168
516.621	186
522.957	160
529.287	230
535.609	414
541.925	444
548.234	232
554.536	204
560.832	398
567.12	1390
573.403	1998
579.679	524
585.948	356
592.211	270
598.466	220
604.715	122
610.958	94
617.194	104
623.424	110
629.647	142
635.864	154
642.074	134
648.276	110
654.473	88
660.664	78
666.847	72
673.025	72
679.195	64
685.36	64
691.517	62
697.669	66
703.814	66
709.953	90
716.085	100
722.21	80
728.33	82
734.443	84
740.549	90
746.65	150
752.743	122
758.831	92
764.912	74
770.986	70
777.055	84
783.117	82
789.173	74
795.222	74
801.265	72
807.302	72
813.333	80
819.357	88
825.376	130
831.387	484
837.392	244
843.392	112
849.386	112
855.372	90
861.353	84
867.328	72
873.296	74
879.258	62
885.214	62
891.164	60
897.108	64
903.046	60
908.977	68
914.903	56
920.822	56
926.735	68
932.643	66
938.543	78
944.439	94
950.328	154
956.21	312
962.088	374
967.958	232
973.824	140
979.682	94
985.534	68
991.382	76
997.222	68
1003.06	66
1008.89	70
1014.71	64
1020.53	86
1026.34	88
1032.14	98
1037.94	90
1043.73	86
1049.52	74
1055.3	64
1061.08	72
1066.85	62
1072.61	66
1078.37	64
1084.12	66
1089.87	62
1095.61	70
1101.34	88
1107.07	152
1112.8	366
1118.51	158
1124.22	96
1129.93	88
1135.63	94
1141.32	90
1147.01	78
1152.69	78
1158.37	96
1164.04	100
1169.71	74
1175.37	106
1181.02	142
1186.67	254
1192.31	162
1197.95	162
1203.58	172
1209.2	134
1214.82	98
1220.44	86
1226.05	122
1231.65	138
1237.25	100
1242.84	80
1248.42	90
1254	88
1259.58	92
1265.15	94
1270.71	98
1276.27	106
1281.82	128
1287.37	158
1292.91	196
1298.45	352
1303.98	760
1309.5	516
1315.02	260
1320.53	196
1326.04	184
1331.54	174
1337.04	146
1342.53	150
1348.02	174
1353.5	166
1358.98	154
1364.45	146
1369.91	176
1375.37	348
1380.82	408
1386.27	300
1391.71	156
1397.15	140
1402.58	132
1408.01	150
1413.43	150
1418.85	156
1424.26	170
1429.66	190
1435.06	190
1440.46	222
1445.85	200
1451.23	168
1456.61	178
1461.98	152
1467.35	160
1472.71	138
1478.07	146
1483.42	144
1488.77	118
1494.11	120
1499.45	124
1504.78	118
1510.11	116
1515.43	116
1520.74	118
1526.05	116
1531.36	112
1536.66	114
1541.95	110
1547.24	116
1552.52	118
1557.8	102
1563.08	108
1568.35	116
1573.61	120
1578.87	152
1584.12	172
1589.37	240
1594.61	346
1599.85	450
1605.08	476
1610.31	350
1615.53	256
1620.75	168
1625.96	140
1631.17	112
1636.37	94
1641.57	96
1646.76	92
1651.95	84
1657.13	88
1662.31	78
1667.48	86
1672.65	76
1677.81	84
1682.97	80
1688.12	76
1693.27	88
1698.41	88
1702.26	74