File: Jesse_Dataset_v2/Pure Raman/Polypropylene oxide/785nm/ps-ppo-6jan25-0,0000-map2_Y08_X00.txt
204.377	318
211.048	316
217.712	308
224.369	466
231.019	792
237.661	824
244.297	576
250.924	358
257.546	234
264.16	194
270.766	170
277.365	172
283.958	216
290.543	340
297.121	392
303.693	294
310.256	238
316.813	218
323.362	212
329.905	212
336.441	218
342.969	204
349.491	208
356.006	184
362.513	176
369.014	180
375.508	170
381.994	136
388.473	128
394.947	120
401.412	130
407.871	150
414.323	196
420.768	148
427.206	112
433.637	86
440.062	84
446.479	74
452.89	66
459.293	80
465.691	98
472.081	144
478.463	214
484.84	266
491.21	166
497.573	112
503.929	98
510.279	144
516.621	162
522.957	140
529.287	216
535.609	368
541.925	386
548.234	206
554.536	190
560.832	378
567.12	1288
573.403	1794
579.679	458
585.948	298
592.211	244
598.466	196
604.715	128
610.958	86
617.194	82
623.424	102
629.647	116
635.864	134
642.074	130
648.276	84
654.473	82
660.664	68
666.847	68
673.025	54
679.195	66
685.36	66
691.517	62
697.669	46
703.814	66
709.953	76
716.085	90
722.21	76
728.33	74
734.443	68
740.549	80
746.65	144
752.743	106
758.831	86
764.912	68
770.986	60
777.055	74
783.117	74
789.173	70
795.222	58
801.265	60
807.302	74
813.333	72
819.357	74
825.376	126
831.387	430
837.392	202
843.392	92
849.386	94
855.372	84
861.353	80
867.328	68
873.296	62
879.258	60
885.214	60
891.164	60
897.108	54
903.046	58
908.977	52
914.903	56
920.822	56
926.735	66
932.643	58
938.543	68
944.439	84
950.328	140
956.21	278
962.088	302
967.958	192
973.824	118
979.682	74
985.534	68
991.382	72
997.222	64
1003.06	60
1008.89	60
1014.71	60
1020.53	66
1026.34	80
1032.14	90
1037.94	90
1043.73	82
1049.52	68
1055.3	66
1061.08	62
1066.85	64
1072.61	60
1078.37	60
1084.12	56
1089.87	60
1095.61	66
1101.34	80
1107.07	128
1112.8	342
1118.51	152
1124.22	96
1129.93	94
1135.63	74
1141.32	92
1147.01	66
1152.69	82
1158.37	72
1164.04	96
1169.71	80
1175.37	92
1181.02	142
1186.67	208
1192.31	158
1197.95	136
1203.58	162
1209.2	118
1214.82	96
1220.44	80
1226.05	108
1231.65	124
1237.25	90
1242.84	84
1248.42	88
1254	82
1259.58	80
1265.15	96
1270.71	100
1276.27	108
1281.82	106
1287.37	132
1292.91	178
1298.45	316
1303.98	692
1309.5	462
1315.02	238
1320.53	178
1326.04	178
1331.54	150
1337.04	130
1342.53	144
1348.02	154
1353.5	146
1358.98	140
1364.45	148
1369.91	164
1375.37	302
1380.82	394
1386.27	258
1391.71	152
1397.15	130
1402.58	136
1408.01	130
1413.43	136
1418.85	150
1424.26	166
1429.66	184
1435.06	176
1440.46	204
1445.85	174
1451.23	166
1456.61	160
1461.98	152
1467.35	140
1472.71	140
1478.07	146
1483.42	126
1488.77	120
1494.11	108
1499.45	96
1504.78	122
1510.11	102
1515.43	100
1520.74	104
1526.05	104
1531.36	106
1536.66	102
1541.95	106
1547.24	108
1552.52	106
1557.8	102
1563.08	104
1568.35	110
1573.61	112
1578.87	128
1584.12	162
1589.37	208
1594.61	314
1599.85	424
1605.08	414
1610.31	334
1615.53	222
1620.75	146
1625.96	124
1631.17	100
1636.37	98
1641.57	84
1646.76	88
1651.95	80
1657.13	78
1662.31	82
1667.48	74
1672.65	72
1677.81	76
1682.97	74
1688.12	78
1693.27	78
1698.41	70
1702.26	74