File: Jesse_Dataset_v2/Pure Raman/Polypropylene oxide/785nm/ps-ppo-6jan25-0,0000-map2_Y03_X00.txt
204.377	390
211.048	350
217.712	346
224.369	488
231.019	920
237.661	962
244.297	678
250.924	430
257.546	288
264.16	212
270.766	182
277.365	186
283.958	236
290.543	362
297.121	444
303.693	352
310.256	282
316.813	246
323.362	234
329.905	262
336.441	264
342.969	228
349.491	212
356.006	232
362.513	186
369.014	202
375.508	214
381.994	154
388.473	132
394.947	120
401.412	132
407.871	156
414.323	230
420.768	172
427.206	130
433.637	110
440.062	90
446.479	82
452.89	86
459.293	74
465.691	110
472.081	156
478.463	238
484.84	308
491.21	172
497.573	110
503.929	104
510.279	162
516.621	176
522.957	158
529.287	236
535.609	406
541.925	432
548.234	242
554.536	228
560.832	416
567.12	1498
573.403	2022
579.679	498
585.948	344
592.211	276
598.466	214
604.715	128
610.958	96
617.194	98
623.424	114
629.647	134
635.864	154
642.074	142
648.276	98
654.473	90
660.664	80
666.847	68
673.025	66
679.195	68
685.36	60
691.517	62
697.669	66
703.814	62
709.953	86
716.085	100
722.21	76
728.33	72
734.443	86
740.549	90
746.65	154
752.743	128
758.831	96
764.912	78
770.986	72
777.055	82
783.117	86
789.173	66
795.222	76
801.265	68
807.302	76
813.333	68
819.357	96
825.376	154
831.387	518
837.392	258
843.392	102
849.386	108
855.372	90
861.353	86
867.328	74
873.296	70
879.258	70
885.214	54
891.164	58
897.108	54
903.046	56
908.977	62
914.903	68
920.822	56
926.735	58
932.643	66
938.543	74
944.439	102
950.328	148
956.21	322
962.088	366
967.958	238
973.824	136
979.682	80
985.534	74
991.382	86
997.222	58
1003.06	64
1008.89	64
1014.71	72
1020.53	84
1026.34	86
1032.14	100
1037.94	94
1043.73	84
1049.52	70
1055.3	70
1061.08	66
1066.85	66
1072.61	60
1078.37	62
1084.12	66
1089.87	66
1095.61	72
1101.34	84
1107.07	152
1112.8	368
1118.51	152
1124.22	100
1129.93	96
1135.63	88
1141.32	84
1147.01	78
1152.69	78
1158.37	84
1164.04	102
1169.71	88
1175.37	102
1181.02	142
1186.67	226
1192.31	174
1197.95	174
1203.58	180
1209.2	138
1214.82	96
1220.44	86
1226.05	116
1231.65	140
1237.25	98
1242.84	86
1248.42	90
1254	86
1259.58	88
1265.15	96
1270.71	100
1276.27	96
1281.82	124
1287.37	152
1292.91	192
1298.45	354
1303.98	800
1309.5	534
1315.02	266
1320.53	190
1326.04	180
1331.54	180
1337.04	142
1342.53	142
1348.02	176
1353.5	172
1358.98	158
1364.45	142
1369.91	184
1375.37	328
1380.82	430
1386.27	280
1391.71	164
1397.15	136
1402.58	142
1408.01	138
1413.43	156
1418.85	162
1424.26	166
1429.66	186
1435.06	204
1440.46	224
1445.85	196
1451.23	170
1456.61	168
1461.98	160
1467.35	164
1472.71	152
1478.07	146
1483.42	128
1488.77	120
1494.11	120
1499.45	118
1504.78	108
1510.11	114
1515.43	110
1520.74	114
1526.05	110
1531.36	112
1536.66	108
1541.95	110
1547.24	114
1552.52	104
1557.8	106
1563.08	114
1568.35	118
1573.61	118
1578.87	142
1584.12	170
1589.37	244
1594.61	350
1599.85	478
1605.08	478
1610.31	366
1615.53	248
1620.75	170
1625.96	136
1631.17	104
1636.37	92
1641.57	92
1646.76	94
1651.95	80
1657.13	74
1662.31	82
1667.48	80
1672.65	78
1677.81	78
1682.97	74
1688.12	78
1693.27	86
1698.41	78
1702.26	70