File: Jesse_Dataset_v2/Pure Raman/Polypropylene oxide/785nm/ps-ppo-6jan25-0,0000-map2_Y05_X03.txt
204.377	376
211.048	336
217.712	334
224.369	476
231.019	882
237.661	942
244.297	634
250.924	392
257.546	248
264.16	206
270.766	174
277.365	180
283.958	236
290.543	348
297.121	420
303.693	334
310.256	248
316.813	224
323.362	230
329.905	258
336.441	252
342.969	210
349.491	216
356.006	230
362.513	200
369.014	178
375.508	186
381.994	150
388.473	142
394.947	134
401.412	142
407.871	148
414.323	216
420.768	164
427.206	124
433.637	90
440.062	88
446.479	78
452.89	80
459.293	92
465.691	100
472.081	150
478.463	212
484.84	280
491.21	172
497.573	106
503.929	112
510.279	150
516.621	174
522.957	162
529.287	234
535.609	404
541.925	414
548.234	222
554.536	214
560.832	414
567.12	1424
573.403	1992
579.679	504
585.948	334
592.211	270
598.466	200
604.715	120
610.958	94
617.194	86
623.424	112
629.647	134
635.864	162
642.074	138
648.276	94
654.473	86
660.664	74
666.847	64
673.025	66
679.195	62
685.36	70
691.517	58
697.669	62
703.814	68
709.953	80
716.085	108
722.21	78
728.33	72
734.443	86
740.549	90
746.65	144
752.743	118
758.831	92
764.912	78
770.986	72
777.055	84
783.117	74
789.173	70
795.222	70
801.265	64
807.302	70
813.333	86
819.357	84
825.376	124
831.387	478
837.392	242
843.392	104
849.386	104
855.372	84
861.353	78
867.328	76
873.296	62
879.258	62
885.214	66
891.164	54
897.108	56
903.046	58
908.977	64
914.903	60
920.822	56
926.735	58
932.643	54
938.543	68
944.439	96
950.328	152
956.21	282
962.088	362
967.958	218
973.824	138
979.682	84
985.534	74
991.382	76
997.222	56
1003.06	58
1008.89	64
1014.71	66
1020.53	76
1026.34	90
1032.14	96
1037.94	102
1043.73	72
1049.52	70
1055.3	62
1061.08	76
1066.85	60
1072.61	60
1078.37	62
1084.12	68
1089.87	66
1095.61	68
1101.34	84
1107.07	138
1112.8	364
1118.51	148
1124.22	106
1129.93	86
1135.63	86
1141.32	92
1147.01	80
1152.69	70
1158.37	88
1164.04	98
1169.71	88
1175.37	98
1181.02	134
1186.67	244
1192.31	176
1197.95	166
1203.58	170
1209.2	128
1214.82	104
1220.44	96
1226.05	112
1231.65	134
1237.25	94
1242.84	82
1248.42	76
1254	84
1259.58	94
1265.15	86
1270.71	106
1276.27	104
1281.82	124
1287.37	160
1292.91	200
1298.45	350
1303.98	788
1309.5	536
1315.02	264
1320.53	184
1326.04	184
1331.54	170
1337.04	150
1342.53	152
1348.02	168
1353.5	164
1358.98	148
1364.45	156
1369.91	176
1375.37	338
1380.82	416
1386.27	282
1391.71	172
1397.15	140
1402.58	126
1408.01	142
1413.43	144
1418.85	158
1424.26	168
1429.66	176
1435.06	214
1440.46	218
1445.85	204
1451.23	172
1456.61	164
1461.98	158
1467.35	172
1472.71	150
1478.07	156
1483.42	144
1488.77	124
1494.11	122
1499.45	124
1504.78	102
1510.11	110
1515.43	108
1520.74	116
1526.05	116
1531.36	114
1536.66	100
1541.95	106
1547.24	112
1552.52	110
1557.8	98
1563.08	120
1568.35	110
1573.61	126
1578.87	148
1584.12	182
1589.37	252
1594.61	328
1599.85	460
1605.08	428
1610.31	360
1615.53	252
1620.75	176
1625.96	142
1631.17	118
1636.37	98
1641.57	94
1646.76	94
1651.95	88
1657.13	90
1662.31	82
1667.48	82
1672.65	80
1677.81	80
1682.97	84
1688.12	80
1693.27	78
1698.41	80
1702.26	78