File: Jesse_Dataset_v2/Pure Raman/Polypropylene oxide/785nm/ps-ppo-6jan25-0,0000-map2_Y07_X04.txt
204.377	328
211.048	298
217.712	298
224.369	410
231.019	744
237.661	760
244.297	530
250.924	346
257.546	242
264.16	174
270.766	164
277.365	176
283.958	202
290.543	336
297.121	354
303.693	270
310.256	220
316.813	204
323.362	192
329.905	222
336.441	220
342.969	172
349.491	186
356.006	182
362.513	168
369.014	180
375.508	166
381.994	136
388.473	130
394.947	110
401.412	118
407.871	132
414.323	178
420.768	136
427.206	110
433.637	80
440.062	78
446.479	80
452.89	74
459.293	70
465.691	98
472.081	140
478.463	196
484.84	248
491.21	156
497.573	96
503.929	88
510.279	136
516.621	150
522.957	134
529.287	204
535.609	360
541.925	352
548.234	188
554.536	190
560.832	364
567.12	1248
573.403	1648
579.679	424
585.948	286
592.211	230
598.466	186
604.715	96
610.958	86
617.194	82
623.424	98
629.647	124
635.864	134
642.074	118
648.276	88
654.473	74
660.664	70
666.847	56
673.025	56
679.195	54
685.36	58
691.517	52
697.669	56
703.814	58
709.953	68
716.085	92
722.21	68
728.33	70
734.443	72
740.549	82
746.65	128
752.743	106
758.831	82
764.912	60
770.986	62
777.055	72
783.117	66
789.173	64
795.222	60
801.265	60
807.302	74
813.333	62
819.357	78
825.376	116
831.387	404
837.392	210
843.392	92
849.386	82
855.372	82
861.353	72
867.328	66
873.296	54
879.258	60
885.214	58
891.164	60
897.108	52
903.046	50
908.977	48
914.903	46
920.822	54
926.735	58
932.643	50
938.543	60
944.439	82
950.328	130
956.21	266
962.088	312
967.958	196
973.824	106
979.682	76
985.534	68
991.382	66
997.222	62
1003.06	62
1008.89	58
1014.71	66
1020.53	74
1026.34	74
1032.14	98
1037.94	92
1043.73	70
1049.52	62
1055.3	58
1061.08	52
1066.85	58
1072.61	62
1078.37	58
1084.12	60
1089.87	60
1095.61	66
1101.34	74
1107.07	130
1112.8	292
1118.51	136
1124.22	92
1129.93	80
1135.63	80
1141.32	84
1147.01	74
1152.69	68
1158.37	78
1164.04	88
1169.71	84
1175.37	88
1181.02	122
1186.67	206
1192.31	148
1197.95	146
1203.58	162
1209.2	118
1214.82	86
1220.44	76
1226.05	106
1231.65	108
1237.25	88
1242.84	82
1248.42	82
1254	84
1259.58	80
1265.15	80
1270.71	88
1276.27	98
1281.82	110
1287.37	136
1292.91	154
1298.45	298
1303.98	644
1309.5	420
1315.02	218
1320.53	166
1326.04	166
1331.54	150
1337.04	128
1342.53	132
1348.02	136
1353.5	152
1358.98	134
1364.45	128
1369.91	140
1375.37	292
1380.82	340
1386.27	236
1391.71	148
1397.15	130
1402.58	114
1408.01	112
1413.43	118
1418.85	136
1424.26	150
1429.66	174
1435.06	186
1440.46	184
1445.85	166
1451.23	152
1456.61	138
1461.98	144
1467.35	128
1472.71	136
1478.07	130
1483.42	124
1488.77	110
1494.11	100
1499.45	96
1504.78	110
1510.11	104
1515.43	98
1520.74	98
1526.05	94
1531.36	98
1536.66	102
1541.95	88
1547.24	88
1552.52	102
1557.8	92
1563.08	94
1568.35	104
1573.61	114
1578.87	118
1584.12	164
1589.37	200
1594.61	294
1599.85	382
1605.08	364
1610.31	292
1615.53	208
1620.75	140
1625.96	110
1631.17	104
1636.37	94
1641.57	82
1646.76	82
1651.95	80
1657.13	68
1662.31	76
1667.48	76
1672.65	66
1677.81	70
1682.97	66
1688.12	72
1693.27	62
1698.41	66
1702.26	72