File: Jesse_Dataset_v2/Pure Raman/Polypropylene oxide/785nm/ps-ppo-6jan25-0,0000-map2_Y02_X01.txt
204.377	398
211.048	360
217.712	358
224.369	478
231.019	918
237.661	950
244.297	660
250.924	428
257.546	286
264.16	222
270.766	196
277.365	178
283.958	240
290.543	394
297.121	450
303.693	344
310.256	280
316.813	246
323.362	242
329.905	272
336.441	262
342.969	238
349.491	236
356.006	216
362.513	194
369.014	210
375.508	202
381.994	150
388.473	144
394.947	122
401.412	134
407.871	146
414.323	230
420.768	160
427.206	126
433.637	104
440.062	96
446.479	86
452.89	82
459.293	88
465.691	112
472.081	160
478.463	236
484.84	286
491.21	190
497.573	118
503.929	102
510.279	162
516.621	162
522.957	156
529.287	238
535.609	404
541.925	428
548.234	220
554.536	228
560.832	404
567.12	1484
573.403	2148
579.679	540
585.948	356
592.211	272
598.466	218
604.715	130
610.958	96
617.194	96
623.424	114
629.647	140
635.864	158
642.074	140
648.276	104
654.473	92
660.664	82
666.847	72
673.025	62
679.195	64
685.36	70
691.517	60
697.669	62
703.814	64
709.953	82
716.085	98
722.21	84
728.33	82
734.443	80
740.549	90
746.65	138
752.743	118
758.831	90
764.912	76
770.986	74
777.055	84
783.117	84
789.173	64
795.222	72
801.265	62
807.302	74
813.333	74
819.357	88
825.376	138
831.387	512
837.392	264
843.392	112
849.386	108
855.372	86
861.353	92
867.328	72
873.296	58
879.258	62
885.214	66
891.164	62
897.108	56
903.046	66
908.977	56
914.903	56
920.822	56
926.735	60
932.643	64
938.543	82
944.439	100
950.328	154
956.21	318
962.088	384
967.958	236
973.824	146
979.682	90
985.534	80
991.382	76
997.222	62
1003.06	62
1008.89	66
1014.71	66
1020.53	84
1026.34	90
1032.14	102
1037.94	102
1043.73	90
1049.52	72
1055.3	70
1061.08	64
1066.85	64
1072.61	62
1078.37	68
1084.12	64
1089.87	64
1095.61	72
1101.34	84
1107.07	144
1112.8	370
1118.51	162
1124.22	106
1129.93	90
1135.63	86
1141.32	86
1147.01	72
1152.69	76
1158.37	82
1164.04	92
1169.71	88
1175.37	102
1181.02	146
1186.67	252
1192.31	166
1197.95	170
1203.58	188
1209.2	120
1214.82	92
1220.44	86
1226.05	110
1231.65	128
1237.25	94
1242.84	90
1248.42	92
1254	80
1259.58	96
1265.15	100
1270.71	100
1276.27	104
1281.82	128
1287.37	146
1292.91	184
1298.45	360
1303.98	816
1309.5	548
1315.02	266
1320.53	210
1326.04	190
1331.54	186
1337.04	150
1342.53	142
1348.02	162
1353.5	168
1358.98	152
1364.45	156
1369.91	206
1375.37	340
1380.82	446
1386.27	282
1391.71	162
1397.15	134
1402.58	144
1408.01	140
1413.43	140
1418.85	168
1424.26	188
1429.66	200
1435.06	202
1440.46	222
1445.85	198
1451.23	182
1456.61	168
1461.98	172
1467.35	162
1472.71	162
1478.07	160
1483.42	146
1488.77	122
1494.11	118
1499.45	116
1504.78	114
1510.11	112
1515.43	110
1520.74	108
1526.05	112
1531.36	100
1536.66	100
1541.95	110
1547.24	98
1552.52	116
1557.8	110
1563.08	108
1568.35	120
1573.61	130
1578.87	142
1584.12	190
1589.37	260
1594.61	354
1599.85	456
1605.08	476
1610.31	376
1615.53	246
1620.75	178
1625.96	136
1631.17	112
1636.37	90
1641.57	88
1646.76	90
1651.95	86
1657.13	80
1662.31	78
1667.48	86
1672.65	80
1677.81	82
1682.97	80
1688.12	80
1693.27	76
1698.41	76
1702.26	84