File: Jesse_Dataset_v2/Pure Raman/Polypropylene oxide/785nm/ps-ppo-6jan25-0,0000-map2_Y10_X05.txt
204.377	366
211.048	316
217.712	336
224.369	460
231.019	846
237.661	846
244.297	592
250.924	390
257.546	254
264.16	184
270.766	178
277.365	176
283.958	212
290.543	354
297.121	414
303.693	308
310.256	242
316.813	224
323.362	224
329.905	240
336.441	252
342.969	212
349.491	188
356.006	184
362.513	188
369.014	196
375.508	182
381.994	138
388.473	126
394.947	122
401.412	124
407.871	158
414.323	200
420.768	158
427.206	126
433.637	90
440.062	90
446.479	82
452.89	82
459.293	76
465.691	92
472.081	142
478.463	214
484.84	264
491.21	164
497.573	110
503.929	102
510.279	166
516.621	170
522.957	142
529.287	212
535.609	382
541.925	386
548.234	192
554.536	208
560.832	372
567.12	1376
573.403	1852
579.679	460
585.948	292
592.211	254
598.466	176
604.715	112
610.958	98
617.194	84
623.424	92
629.647	124
635.864	148
642.074	124
648.276	98
654.473	80
660.664	74
666.847	64
673.025	56
679.195	54
685.36	58
691.517	60
697.669	52
703.814	58
709.953	80
716.085	90
722.21	74
728.33	74
734.443	74
740.549	86
746.65	144
752.743	128
758.831	86
764.912	62
770.986	70
777.055	68
783.117	78
789.173	68
795.222	60
801.265	66
807.302	64
813.333	72
819.357	84
825.376	132
831.387	474
837.392	234
843.392	94
849.386	92
855.372	84
861.353	70
867.328	64
873.296	60
879.258	64
885.214	60
891.164	50
897.108	52
903.046	56
908.977	56
914.903	62
920.822	52
926.735	56
932.643	66
938.543	66
944.439	94
950.328	146
956.21	288
962.088	338
967.958	204
973.824	128
979.682	80
985.534	74
991.382	66
997.222	60
1003.06	52
1008.89	64
1014.71	62
1020.53	66
1026.34	84
1032.14	90
1037.94	94
1043.73	72
1049.52	62
1055.3	60
1061.08	64
1066.85	58
1072.61	62
1078.37	66
1084.12	64
1089.87	64
1095.61	62
1101.34	74
1107.07	136
1112.8	324
1118.51	152
1124.22	92
1129.93	80
1135.63	86
1141.32	82
1147.01	80
1152.69	72
1158.37	84
1164.04	92
1169.71	86
1175.37	92
1181.02	124
1186.67	224
1192.31	158
1197.95	140
1203.58	156
1209.2	120
1214.82	84
1220.44	86
1226.05	94
1231.65	132
1237.25	96
1242.84	82
1248.42	82
1254	86
1259.58	90
1265.15	94
1270.71	96
1276.27	96
1281.82	128
1287.37	150
1292.91	176
1298.45	322
1303.98	716
1309.5	480
1315.02	248
1320.53	190
1326.04	172
1331.54	160
1337.04	136
1342.53	146
1348.02	148
1353.5	162
1358.98	144
1364.45	146
1369.91	168
1375.37	316
1380.82	390
1386.27	276
1391.71	150
1397.15	126
1402.58	130
1408.01	128
1413.43	126
1418.85	146
1424.26	168
1429.66	174
1435.06	182
1440.46	202
1445.85	182
1451.23	158
1456.61	142
1461.98	148
1467.35	162
1472.71	134
1478.07	120
1483.42	132
1488.77	122
1494.11	106
1499.45	112
1504.78	116
1510.11	106
1515.43	110
1520.74	102
1526.05	108
1531.36	106
1536.66	108
1541.95	92
1547.24	104
1552.52	98
1557.8	102
1563.08	106
1568.35	110
1573.61	126
1578.87	126
1584.12	176
1589.37	216
1594.61	312
1599.85	430
1605.08	414
1610.31	310
1615.53	230
1620.75	146
1625.96	122
1631.17	96
1636.37	96
1641.57	82
1646.76	80
1651.95	84
1657.13	76
1662.31	86
1667.48	70
1672.65	70
1677.81	74
1682.97	72
1688.12	76
1693.27	76
1698.41	72
1702.26	76