File: Jesse_Dataset_v2/Pure Raman/Polypropylene oxide/785nm/ps-ppo-6jan25-0,0000-map2_Y10_X04.txt
204.377	354
211.048	304
217.712	318
224.369	410
231.019	820
237.661	836
244.297	556
250.924	346
257.546	234
264.16	194
270.766	166
277.365	170
283.958	194
290.543	344
297.121	378
303.693	296
310.256	242
316.813	200
323.362	212
329.905	226
336.441	228
342.969	196
349.491	184
356.006	196
362.513	180
369.014	180
375.508	176
381.994	144
388.473	124
394.947	112
401.412	122
407.871	138
414.323	200
420.768	150
427.206	112
433.637	84
440.062	84
446.479	78
452.89	74
459.293	84
465.691	102
472.081	132
478.463	210
484.84	250
491.21	162
497.573	98
503.929	100
510.279	146
516.621	154
522.957	150
529.287	198
535.609	360
541.925	354
548.234	200
554.536	184
560.832	370
567.12	1272
573.403	1740
579.679	436
585.948	308
592.211	240
598.466	184
604.715	106
610.958	92
617.194	82
623.424	100
629.647	116
635.864	130
642.074	118
648.276	84
654.473	84
660.664	74
666.847	66
673.025	60
679.195	56
685.36	54
691.517	56
697.669	56
703.814	66
709.953	72
716.085	94
722.21	60
728.33	78
734.443	72
740.549	90
746.65	124
752.743	112
758.831	84
764.912	70
770.986	72
777.055	80
783.117	70
789.173	68
795.222	58
801.265	66
807.302	72
813.333	62
819.357	82
825.376	128
831.387	450
837.392	210
843.392	102
849.386	90
855.372	82
861.353	66
867.328	70
873.296	68
879.258	62
885.214	62
891.164	54
897.108	52
903.046	54
908.977	56
914.903	44
920.822	56
926.735	52
932.643	58
938.543	70
944.439	88
950.328	134
956.21	278
962.088	318
967.958	194
973.824	128
979.682	84
985.534	66
991.382	68
997.222	66
1003.06	64
1008.89	68
1014.71	60
1020.53	76
1026.34	78
1032.14	96
1037.94	86
1043.73	72
1049.52	72
1055.3	64
1061.08	58
1066.85	60
1072.61	64
1078.37	60
1084.12	66
1089.87	64
1095.61	64
1101.34	76
1107.07	140
1112.8	326
1118.51	152
1124.22	94
1129.93	82
1135.63	80
1141.32	82
1147.01	72
1152.69	72
1158.37	76
1164.04	90
1169.71	86
1175.37	92
1181.02	126
1186.67	210
1192.31	150
1197.95	148
1203.58	160
1209.2	122
1214.82	86
1220.44	84
1226.05	106
1231.65	122
1237.25	92
1242.84	92
1248.42	88
1254	88
1259.58	88
1265.15	96
1270.71	88
1276.27	102
1281.82	122
1287.37	134
1292.91	160
1298.45	320
1303.98	674
1309.5	468
1315.02	218
1320.53	176
1326.04	156
1331.54	150
1337.04	136
1342.53	138
1348.02	154
1353.5	162
1358.98	142
1364.45	132
1369.91	154
1375.37	328
1380.82	382
1386.27	250
1391.71	150
1397.15	142
1402.58	136
1408.01	126
1413.43	134
1418.85	144
1424.26	160
1429.66	176
1435.06	194
1440.46	194
1445.85	170
1451.23	160
1456.61	150
1461.98	146
1467.35	140
1472.71	144
1478.07	136
1483.42	124
1488.77	118
1494.11	106
1499.45	108
1504.78	114
1510.11	108
1515.43	106
1520.74	106
1526.05	98
1531.36	94
1536.66	98
1541.95	104
1547.24	102
1552.52	96
1557.8	98
1563.08	106
1568.35	102
1573.61	118
1578.87	122
1584.12	164
1589.37	218
1594.61	304
1599.85	400
1605.08	410
1610.31	312
1615.53	210
1620.75	154
1625.96	116
1631.17	100
1636.37	92
1641.57	78
1646.76	92
1651.95	84
1657.13	74
1662.31	70
1667.48	80
1672.65	72
1677.81	68
1682.97	78
1688.12	74
1693.27	72
1698.41	76
1702.26	74