File: Jesse_Dataset_v2/Pure Raman/Polypropylene oxide/785nm/ps-ppo-6jan25-0,0000-map2_Y08_X08.txt
204.377	330
211.048	304
217.712	290
224.369	412
231.019	802
237.661	780
244.297	540
250.924	340
257.546	254
264.16	178
270.766	170
277.365	162
283.958	204
290.543	324
297.121	388
303.693	270
310.256	228
316.813	210
323.362	210
329.905	222
336.441	224
342.969	184
349.491	192
356.006	196
362.513	160
369.014	170
375.508	176
381.994	122
388.473	116
394.947	110
401.412	120
407.871	144
414.323	182
420.768	154
427.206	104
433.637	94
440.062	86
446.479	86
452.89	74
459.293	80
465.691	96
472.081	130
478.463	198
484.84	258
491.21	152
497.573	96
503.929	92
510.279	142
516.621	146
522.957	146
529.287	194
535.609	354
541.925	372
548.234	200
554.536	192
560.832	358
567.12	1270
573.403	1750
579.679	414
585.948	280
592.211	238
598.466	186
604.715	104
610.958	86
617.194	88
623.424	104
629.647	122
635.864	142
642.074	120
648.276	86
654.473	80
660.664	68
666.847	62
673.025	60
679.195	54
685.36	56
691.517	56
697.669	54
703.814	66
709.953	72
716.085	88
722.21	68
728.33	72
734.443	70
740.549	88
746.65	120
752.743	116
758.831	80
764.912	64
770.986	62
777.055	74
783.117	70
789.173	62
795.222	60
801.265	58
807.302	70
813.333	68
819.357	80
825.376	110
831.387	428
837.392	222
843.392	80
849.386	86
855.372	76
861.353	72
867.328	74
873.296	58
879.258	56
885.214	50
891.164	50
897.108	58
903.046	52
908.977	56
914.903	50
920.822	56
926.735	56
932.643	62
938.543	70
944.439	82
950.328	128
956.21	264
962.088	312
967.958	194
973.824	122
979.682	78
985.534	66
991.382	76
997.222	60
1003.06	60
1008.89	58
1014.71	64
1020.53	70
1026.34	76
1032.14	84
1037.94	84
1043.73	78
1049.52	62
1055.3	58
1061.08	64
1066.85	60
1072.61	56
1078.37	58
1084.12	56
1089.87	62
1095.61	66
1101.34	72
1107.07	134
1112.8	314
1118.51	140
1124.22	94
1129.93	76
1135.63	70
1141.32	82
1147.01	68
1152.69	74
1158.37	82
1164.04	88
1169.71	82
1175.37	92
1181.02	122
1186.67	220
1192.31	146
1197.95	142
1203.58	144
1209.2	108
1214.82	98
1220.44	90
1226.05	94
1231.65	116
1237.25	96
1242.84	82
1248.42	80
1254	80
1259.58	80
1265.15	96
1270.71	86
1276.27	98
1281.82	118
1287.37	138
1292.91	170
1298.45	314
1303.98	670
1309.5	452
1315.02	236
1320.53	164
1326.04	150
1331.54	146
1337.04	140
1342.53	132
1348.02	142
1353.5	148
1358.98	134
1364.45	134
1369.91	164
1375.37	288
1380.82	382
1386.27	232
1391.71	152
1397.15	132
1402.58	120
1408.01	122
1413.43	130
1418.85	136
1424.26	154
1429.66	166
1435.06	190
1440.46	186
1445.85	178
1451.23	158
1456.61	144
1461.98	138
1467.35	136
1472.71	128
1478.07	128
1483.42	124
1488.77	104
1494.11	108
1499.45	106
1504.78	106
1510.11	100
1515.43	100
1520.74	98
1526.05	90
1531.36	102
1536.66	100
1541.95	90
1547.24	86
1552.52	98
1557.8	102
1563.08	104
1568.35	100
1573.61	120
1578.87	126
1584.12	164
1589.37	214
1594.61	300
1599.85	388
1605.08	392
1610.31	300
1615.53	218
1620.75	150
1625.96	118
1631.17	106
1636.37	84
1641.57	78
1646.76	78
1651.95	78
1657.13	76
1662.31	84
1667.48	76
1672.65	76
1677.81	68
1682.97	66
1688.12	62
1693.27	74
1698.41	76
1702.26	74