File: Jesse_Dataset_v2/Pure Raman/Polypropylene oxide/785nm/ps-ppo-6jan25-0,0000-map2_Y00_X10.txt
204.377	370
211.048	316
217.712	314
224.369	460
231.019	838
237.661	854
244.297	580
250.924	392
257.546	240
264.16	200
270.766	184
277.365	180
283.958	216
290.543	340
297.121	426
303.693	314
310.256	248
316.813	206
323.362	232
329.905	234
336.441	236
342.969	206
349.491	204
356.006	190
362.513	196
369.014	190
375.508	166
381.994	132
388.473	130
394.947	120
401.412	114
407.871	152
414.323	206
420.768	154
427.206	118
433.637	104
440.062	86
446.479	84
452.89	84
459.293	82
465.691	108
472.081	148
478.463	210
484.84	278
491.21	160
497.573	112
503.929	102
510.279	148
516.621	166
522.957	138
529.287	214
535.609	384
541.925	374
548.234	212
554.536	212
560.832	370
567.12	1316
573.403	1826
579.679	476
585.948	312
592.211	254
598.466	192
604.715	120
610.958	94
617.194	96
623.424	116
629.647	132
635.864	158
642.074	122
648.276	98
654.473	74
660.664	72
666.847	64
673.025	60
679.195	60
685.36	66
691.517	68
697.669	60
703.814	62
709.953	80
716.085	98
722.21	78
728.33	74
734.443	76
740.549	86
746.65	120
752.743	106
758.831	92
764.912	60
770.986	70
777.055	82
783.117	80
789.173	70
795.222	66
801.265	74
807.302	74
813.333	68
819.357	86
825.376	114
831.387	458
837.392	234
843.392	102
849.386	96
855.372	88
861.353	76
867.328	66
873.296	66
879.258	70
885.214	58
891.164	60
897.108	60
903.046	66
908.977	60
914.903	62
920.822	58
926.735	58
932.643	70
938.543	74
944.439	84
950.328	140
956.21	274
962.088	320
967.958	202
973.824	132
979.682	86
985.534	70
991.382	68
997.222	68
1003.06	60
1008.89	64
1014.71	72
1020.53	88
1026.34	78
1032.14	94
1037.94	92
1043.73	82
1049.52	72
1055.3	66
1061.08	76
1066.85	60
1072.61	60
1078.37	52
1084.12	70
1089.87	60
1095.61	78
1101.34	78
1107.07	142
1112.8	330
1118.51	150
1124.22	108
1129.93	82
1135.63	78
1141.32	90
1147.01	70
1152.69	70
1158.37	72
1164.04	92
1169.71	96
1175.37	94
1181.02	142
1186.67	230
1192.31	164
1197.95	156
1203.58	154
1209.2	118
1214.82	92
1220.44	76
1226.05	106
1231.65	130
1237.25	88
1242.84	94
1248.42	86
1254	78
1259.58	92
1265.15	96
1270.71	96
1276.27	96
1281.82	126
1287.37	136
1292.91	166
1298.45	332
1303.98	670
1309.5	482
1315.02	250
1320.53	178
1326.04	176
1331.54	160
1337.04	142
1342.53	148
1348.02	156
1353.5	158
1358.98	132
1364.45	138
1369.91	162
1375.37	304
1380.82	376
1386.27	258
1391.71	162
1397.15	128
1402.58	126
1408.01	120
1413.43	146
1418.85	152
1424.26	178
1429.66	188
1435.06	180
1440.46	200
1445.85	188
1451.23	156
1456.61	166
1461.98	146
1467.35	146
1472.71	140
1478.07	136
1483.42	122
1488.77	108
1494.11	120
1499.45	108
1504.78	110
1510.11	112
1515.43	110
1520.74	100
1526.05	102
1531.36	102
1536.66	104
1541.95	100
1547.24	102
1552.52	102
1557.8	102
1563.08	108
1568.35	118
1573.61	114
1578.87	134
1584.12	162
1589.37	228
1594.61	324
1599.85	392
1605.08	416
1610.31	296
1615.53	228
1620.75	168
1625.96	118
1631.17	106
1636.37	92
1641.57	94
1646.76	96
1651.95	84
1657.13	84
1662.31	76
1667.48	80
1672.65	82
1677.81	68
1682.97	72
1688.12	86
1693.27	76
1698.41	80
1702.26	76