File: Jesse_Dataset_v2/Pure Raman/Polypropylene oxide/785nm/ps-ppo-6jan25-0,0000-map2_Y06_X00.txt
204.377	370
211.048	324
217.712	330
224.369	452
231.019	888
237.661	884
244.297	628
250.924	402
257.546	252
264.16	222
270.766	174
277.365	184
283.958	240
290.543	364
297.121	428
303.693	310
310.256	238
316.813	228
323.362	230
329.905	246
336.441	254
342.969	216
349.491	200
356.006	202
362.513	186
369.014	186
375.508	186
381.994	152
388.473	134
394.947	126
401.412	128
407.871	146
414.323	210
420.768	168
427.206	114
433.637	96
440.062	78
446.479	78
452.89	88
459.293	86
465.691	94
472.081	154
478.463	216
484.84	292
491.21	168
497.573	116
503.929	102
510.279	162
516.621	170
522.957	152
529.287	222
535.609	416
541.925	402
548.234	230
554.536	216
560.832	398
567.12	1422
573.403	1892
579.679	462
585.948	298
592.211	258
598.466	192
604.715	122
610.958	80
617.194	96
623.424	110
629.647	140
635.864	158
642.074	120
648.276	98
654.473	78
660.664	76
666.847	72
673.025	60
679.195	62
685.36	56
691.517	56
697.669	50
703.814	66
709.953	78
716.085	100
722.21	78
728.33	68
734.443	80
740.549	90
746.65	134
752.743	122
758.831	80
764.912	70
770.986	68
777.055	74
783.117	76
789.173	64
795.222	62
801.265	62
807.302	74
813.333	74
819.357	86
825.376	140
831.387	462
837.392	240
843.392	90
849.386	96
855.372	86
861.353	72
867.328	76
873.296	66
879.258	66
885.214	62
891.164	54
897.108	60
903.046	52
908.977	56
914.903	56
920.822	64
926.735	68
932.643	64
938.543	74
944.439	82
950.328	144
956.21	302
962.088	336
967.958	224
973.824	126
979.682	80
985.534	66
991.382	82
997.222	64
1003.06	64
1008.89	68
1014.71	58
1020.53	76
1026.34	84
1032.14	92
1037.94	92
1043.73	84
1049.52	74
1055.3	60
1061.08	70
1066.85	66
1072.61	58
1078.37	64
1084.12	60
1089.87	60
1095.61	68
1101.34	78
1107.07	134
1112.8	336
1118.51	158
1124.22	96
1129.93	90
1135.63	82
1141.32	90
1147.01	76
1152.69	70
1158.37	88
1164.04	94
1169.71	92
1175.37	96
1181.02	148
1186.67	234
1192.31	170
1197.95	144
1203.58	174
1209.2	126
1214.82	90
1220.44	92
1226.05	122
1231.65	122
1237.25	104
1242.84	78
1248.42	82
1254	84
1259.58	86
1265.15	94
1270.71	86
1276.27	106
1281.82	122
1287.37	142
1292.91	188
1298.45	340
1303.98	724
1309.5	482
1315.02	242
1320.53	196
1326.04	182
1331.54	160
1337.04	148
1342.53	132
1348.02	150
1353.5	160
1358.98	146
1364.45	158
1369.91	178
1375.37	312
1380.82	396
1386.27	266
1391.71	156
1397.15	138
1402.58	140
1408.01	134
1413.43	132
1418.85	162
1424.26	164
1429.66	184
1435.06	202
1440.46	212
1445.85	194
1451.23	154
1456.61	156
1461.98	150
1467.35	152
1472.71	142
1478.07	158
1483.42	118
1488.77	114
1494.11	112
1499.45	114
1504.78	110
1510.11	100
1515.43	112
1520.74	102
1526.05	108
1531.36	108
1536.66	92
1541.95	104
1547.24	114
1552.52	102
1557.8	112
1563.08	108
1568.35	112
1573.61	130
1578.87	140
1584.12	168
1589.37	224
1594.61	324
1599.85	440
1605.08	426
1610.31	346
1615.53	232
1620.75	162
1625.96	124
1631.17	108
1636.37	98
1641.57	90
1646.76	86
1651.95	82
1657.13	90
1662.31	82
1667.48	82
1672.65	74
1677.81	76
1682.97	78
1688.12	78
1693.27	82
1698.41	76
1702.26	76