File: Jesse_Dataset_v2/Pure Raman/Polypropylene oxide/785nm/ps-ppo-6jan25-0,0000-map2_Y08_X07.txt
204.377	374
211.048	316
217.712	312
224.369	446
231.019	864
237.661	874
244.297	570
250.924	384
257.546	268
264.16	210
270.766	172
277.365	166
283.958	222
290.543	334
297.121	418
303.693	310
310.256	250
316.813	220
323.362	206
329.905	240
336.441	234
342.969	214
349.491	184
356.006	204
362.513	180
369.014	180
375.508	178
381.994	152
388.473	136
394.947	120
401.412	116
407.871	144
414.323	202
420.768	160
427.206	110
433.637	98
440.062	86
446.479	72
452.89	78
459.293	86
465.691	96
472.081	136
478.463	214
484.84	272
491.21	166
497.573	96
503.929	90
510.279	152
516.621	156
522.957	144
529.287	218
535.609	392
541.925	394
548.234	204
554.536	198
560.832	370
567.12	1332
573.403	1798
579.679	468
585.948	304
592.211	242
598.466	190
604.715	100
610.958	96
617.194	88
623.424	98
629.647	132
635.864	148
642.074	128
648.276	100
654.473	80
660.664	74
666.847	62
673.025	56
679.195	56
685.36	60
691.517	58
697.669	58
703.814	68
709.953	80
716.085	90
722.21	72
728.33	74
734.443	70
740.549	88
746.65	126
752.743	98
758.831	92
764.912	74
770.986	68
777.055	76
783.117	78
789.173	64
795.222	64
801.265	56
807.302	74
813.333	72
819.357	78
825.376	122
831.387	458
837.392	232
843.392	104
849.386	94
855.372	84
861.353	80
867.328	66
873.296	58
879.258	60
885.214	54
891.164	58
897.108	60
903.046	56
908.977	50
914.903	56
920.822	66
926.735	62
932.643	62
938.543	70
944.439	80
950.328	146
956.21	270
962.088	334
967.958	196
973.824	120
979.682	68
985.534	58
991.382	66
997.222	66
1003.06	54
1008.89	62
1014.71	64
1020.53	66
1026.34	74
1032.14	90
1037.94	88
1043.73	86
1049.52	78
1055.3	62
1061.08	58
1066.85	58
1072.61	58
1078.37	60
1084.12	64
1089.87	62
1095.61	68
1101.34	80
1107.07	148
1112.8	332
1118.51	152
1124.22	98
1129.93	84
1135.63	76
1141.32	90
1147.01	78
1152.69	62
1158.37	80
1164.04	76
1169.71	90
1175.37	92
1181.02	140
1186.67	236
1192.31	166
1197.95	148
1203.58	168
1209.2	122
1214.82	92
1220.44	78
1226.05	108
1231.65	130
1237.25	96
1242.84	84
1248.42	84
1254	86
1259.58	90
1265.15	80
1270.71	94
1276.27	102
1281.82	128
1287.37	136
1292.91	182
1298.45	324
1303.98	714
1309.5	476
1315.02	238
1320.53	182
1326.04	168
1331.54	158
1337.04	146
1342.53	136
1348.02	164
1353.5	158
1358.98	142
1364.45	152
1369.91	168
1375.37	318
1380.82	388
1386.27	254
1391.71	162
1397.15	134
1402.58	128
1408.01	128
1413.43	134
1418.85	150
1424.26	160
1429.66	178
1435.06	194
1440.46	194
1445.85	176
1451.23	154
1456.61	152
1461.98	138
1467.35	148
1472.71	142
1478.07	136
1483.42	126
1488.77	120
1494.11	110
1499.45	116
1504.78	114
1510.11	104
1515.43	104
1520.74	96
1526.05	102
1531.36	98
1536.66	100
1541.95	96
1547.24	106
1552.52	100
1557.8	90
1563.08	106
1568.35	110
1573.61	124
1578.87	140
1584.12	170
1589.37	216
1594.61	336
1599.85	428
1605.08	442
1610.31	314
1615.53	226
1620.75	160
1625.96	116
1631.17	96
1636.37	86
1641.57	84
1646.76	88
1651.95	74
1657.13	80
1662.31	78
1667.48	74
1672.65	76
1677.81	84
1682.97	74
1688.12	74
1693.27	76
1698.41	66
1702.26	74