File: Jesse_Dataset_v2/Pure Raman/Polypropylene oxide/785nm/ps-ppo-6jan25-0,0000-map2_Y08_X03.txt
204.377	342
211.048	286
217.712	308
224.369	454
231.019	836
237.661	846
244.297	600
250.924	370
257.546	250
264.16	196
270.766	166
277.365	176
283.958	212
290.543	326
297.121	406
303.693	304
310.256	254
316.813	218
323.362	200
329.905	234
336.441	240
342.969	198
349.491	198
356.006	198
362.513	184
369.014	178
375.508	174
381.994	150
388.473	124
394.947	120
401.412	106
407.871	136
414.323	200
420.768	164
427.206	118
433.637	96
440.062	78
446.479	76
452.89	76
459.293	80
465.691	98
472.081	146
478.463	208
484.84	256
491.21	156
497.573	94
503.929	102
510.279	150
516.621	152
522.957	146
529.287	206
535.609	372
541.925	382
548.234	200
554.536	190
560.832	350
567.12	1332
573.403	1706
579.679	466
585.948	288
592.211	246
598.466	192
604.715	108
610.958	88
617.194	94
623.424	102
629.647	122
635.864	132
642.074	118
648.276	100
654.473	80
660.664	62
666.847	68
673.025	56
679.195	56
685.36	58
691.517	52
697.669	56
703.814	64
709.953	78
716.085	98
722.21	78
728.33	74
734.443	74
740.549	88
746.65	134
752.743	104
758.831	92
764.912	62
770.986	74
777.055	80
783.117	78
789.173	70
795.222	58
801.265	66
807.302	66
813.333	72
819.357	84
825.376	126
831.387	454
837.392	230
843.392	98
849.386	86
855.372	80
861.353	78
867.328	68
873.296	60
879.258	56
885.214	58
891.164	56
897.108	64
903.046	60
908.977	54
914.903	54
920.822	56
926.735	58
932.643	62
938.543	70
944.439	82
950.328	146
956.21	278
962.088	322
967.958	202
973.824	124
979.682	78
985.534	70
991.382	70
997.222	64
1003.06	60
1008.89	54
1014.71	66
1020.53	74
1026.34	84
1032.14	92
1037.94	92
1043.73	82
1049.52	66
1055.3	60
1061.08	58
1066.85	64
1072.61	60
1078.37	60
1084.12	68
1089.87	66
1095.61	64
1101.34	72
1107.07	126
1112.8	326
1118.51	148
1124.22	100
1129.93	88
1135.63	82
1141.32	92
1147.01	76
1152.69	70
1158.37	78
1164.04	92
1169.71	82
1175.37	90
1181.02	136
1186.67	222
1192.31	166
1197.95	146
1203.58	164
1209.2	114
1214.82	90
1220.44	88
1226.05	102
1231.65	122
1237.25	90
1242.84	80
1248.42	86
1254	82
1259.58	86
1265.15	92
1270.71	96
1276.27	100
1281.82	116
1287.37	152
1292.91	184
1298.45	308
1303.98	710
1309.5	464
1315.02	242
1320.53	176
1326.04	164
1331.54	162
1337.04	140
1342.53	148
1348.02	156
1353.5	148
1358.98	142
1364.45	154
1369.91	166
1375.37	314
1380.82	386
1386.27	244
1391.71	154
1397.15	132
1402.58	126
1408.01	130
1413.43	136
1418.85	142
1424.26	164
1429.66	182
1435.06	184
1440.46	198
1445.85	190
1451.23	178
1456.61	154
1461.98	144
1467.35	138
1472.71	134
1478.07	138
1483.42	134
1488.77	120
1494.11	120
1499.45	114
1504.78	100
1510.11	110
1515.43	112
1520.74	110
1526.05	110
1531.36	100
1536.66	100
1541.95	98
1547.24	100
1552.52	106
1557.8	104
1563.08	104
1568.35	118
1573.61	118
1578.87	142
1584.12	170
1589.37	228
1594.61	318
1599.85	412
1605.08	434
1610.31	326
1615.53	226
1620.75	152
1625.96	120
1631.17	102
1636.37	98
1641.57	88
1646.76	92
1651.95	78
1657.13	76
1662.31	86
1667.48	76
1672.65	78
1677.81	74
1682.97	68
1688.12	80
1693.27	78
1698.41	78
1702.26	80