File: Jesse_Dataset_v2/Pure Raman/Polypropylene oxide/785nm/ps-ppo-6jan25-0,0000-map2_Y00_X08.txt
204.377	380
211.048	322
217.712	318
224.369	448
231.019	878
237.661	916
244.297	598
250.924	372
257.546	264
264.16	194
270.766	172
277.365	168
283.958	230
290.543	366
297.121	404
303.693	308
310.256	250
316.813	214
323.362	214
329.905	260
336.441	246
342.969	198
349.491	208
356.006	214
362.513	194
369.014	190
375.508	190
381.994	160
388.473	134
394.947	120
401.412	124
407.871	148
414.323	210
420.768	154
427.206	122
433.637	84
440.062	94
446.479	90
452.89	74
459.293	72
465.691	94
472.081	144
478.463	228
484.84	276
491.21	178
497.573	110
503.929	98
510.279	144
516.621	168
522.957	150
529.287	224
535.609	386
541.925	390
548.234	212
554.536	208
560.832	362
567.12	1360
573.403	1882
579.679	494
585.948	310
592.211	260
598.466	208
604.715	114
610.958	84
617.194	88
623.424	112
629.647	138
635.864	156
642.074	114
648.276	100
654.473	82
660.664	68
666.847	68
673.025	66
679.195	60
685.36	70
691.517	68
697.669	60
703.814	58
709.953	80
716.085	100
722.21	80
728.33	76
734.443	84
740.549	94
746.65	142
752.743	120
758.831	88
764.912	70
770.986	68
777.055	64
783.117	72
789.173	72
795.222	60
801.265	66
807.302	76
813.333	76
819.357	88
825.376	122
831.387	442
837.392	236
843.392	114
849.386	88
855.372	92
861.353	76
867.328	70
873.296	66
879.258	64
885.214	56
891.164	50
897.108	64
903.046	62
908.977	50
914.903	58
920.822	58
926.735	64
932.643	68
938.543	72
944.439	92
950.328	142
956.21	282
962.088	336
967.958	212
973.824	126
979.682	72
985.534	70
991.382	70
997.222	62
1003.06	62
1008.89	66
1014.71	72
1020.53	80
1026.34	80
1032.14	100
1037.94	98
1043.73	86
1049.52	74
1055.3	70
1061.08	66
1066.85	62
1072.61	62
1078.37	66
1084.12	60
1089.87	68
1095.61	74
1101.34	72
1107.07	138
1112.8	352
1118.51	156
1124.22	110
1129.93	88
1135.63	88
1141.32	96
1147.01	84
1152.69	76
1158.37	88
1164.04	94
1169.71	88
1175.37	90
1181.02	134
1186.67	232
1192.31	160
1197.95	142
1203.58	172
1209.2	136
1214.82	88
1220.44	94
1226.05	110
1231.65	130
1237.25	86
1242.84	80
1248.42	80
1254	90
1259.58	80
1265.15	104
1270.71	96
1276.27	100
1281.82	128
1287.37	142
1292.91	184
1298.45	336
1303.98	722
1309.5	486
1315.02	254
1320.53	194
1326.04	182
1331.54	168
1337.04	142
1342.53	146
1348.02	156
1353.5	160
1358.98	146
1364.45	140
1369.91	174
1375.37	318
1380.82	406
1386.27	272
1391.71	152
1397.15	128
1402.58	132
1408.01	132
1413.43	142
1418.85	144
1424.26	162
1429.66	176
1435.06	190
1440.46	206
1445.85	182
1451.23	168
1456.61	150
1461.98	154
1467.35	140
1472.71	148
1478.07	150
1483.42	148
1488.77	122
1494.11	112
1499.45	112
1504.78	122
1510.11	118
1515.43	116
1520.74	98
1526.05	110
1531.36	100
1536.66	106
1541.95	104
1547.24	108
1552.52	96
1557.8	102
1563.08	114
1568.35	110
1573.61	124
1578.87	142
1584.12	164
1589.37	228
1594.61	324
1599.85	414
1605.08	426
1610.31	342
1615.53	258
1620.75	166
1625.96	122
1631.17	112
1636.37	90
1641.57	96
1646.76	86
1651.95	76
1657.13	88
1662.31	88
1667.48	76
1672.65	84
1677.81	80
1682.97	80
1688.12	74
1693.27	76
1698.41	86
1702.26	78