File: Jesse_Dataset_v2/Pure Raman/Polypropylene oxide/785nm/ps-ppo-6jan25-0,0000-map2_Y02_X06.txt
204.377	374
211.048	336
217.712	308
224.369	456
231.019	840
237.661	840
244.297	602
250.924	390
257.546	248
264.16	194
270.766	174
277.365	178
283.958	220
290.543	340
297.121	398
303.693	306
310.256	250
316.813	216
323.362	216
329.905	234
336.441	250
342.969	208
349.491	204
356.006	210
362.513	170
369.014	194
375.508	188
381.994	148
388.473	138
394.947	124
401.412	126
407.871	152
414.323	200
420.768	150
427.206	116
433.637	86
440.062	94
446.479	80
452.89	74
459.293	84
465.691	106
472.081	140
478.463	210
484.84	286
491.21	182
497.573	106
503.929	92
510.279	156
516.621	172
522.957	158
529.287	212
535.609	388
541.925	400
548.234	218
554.536	208
560.832	378
567.12	1370
573.403	1880
579.679	464
585.948	314
592.211	244
598.466	194
604.715	120
610.958	94
617.194	92
623.424	90
629.647	124
635.864	148
642.074	124
648.276	98
654.473	80
660.664	70
666.847	60
673.025	62
679.195	58
685.36	72
691.517	62
697.669	62
703.814	58
709.953	84
716.085	90
722.21	80
728.33	76
734.443	78
740.549	88
746.65	130
752.743	116
758.831	86
764.912	78
770.986	70
777.055	84
783.117	76
789.173	70
795.222	66
801.265	70
807.302	76
813.333	76
819.357	80
825.376	128
831.387	430
837.392	232
843.392	98
849.386	96
855.372	86
861.353	76
867.328	70
873.296	58
879.258	64
885.214	54
891.164	54
897.108	56
903.046	56
908.977	60
914.903	52
920.822	58
926.735	60
932.643	66
938.543	68
944.439	86
950.328	148
956.21	276
962.088	356
967.958	218
973.824	132
979.682	82
985.534	72
991.382	72
997.222	72
1003.06	64
1008.89	58
1014.71	66
1020.53	90
1026.34	78
1032.14	98
1037.94	90
1043.73	86
1049.52	66
1055.3	60
1061.08	60
1066.85	62
1072.61	62
1078.37	64
1084.12	62
1089.87	66
1095.61	66
1101.34	72
1107.07	130
1112.8	346
1118.51	160
1124.22	94
1129.93	88
1135.63	82
1141.32	90
1147.01	72
1152.69	74
1158.37	84
1164.04	90
1169.71	86
1175.37	94
1181.02	136
1186.67	214
1192.31	164
1197.95	154
1203.58	158
1209.2	132
1214.82	96
1220.44	74
1226.05	110
1231.65	134
1237.25	94
1242.84	78
1248.42	86
1254	92
1259.58	84
1265.15	90
1270.71	86
1276.27	104
1281.82	128
1287.37	148
1292.91	182
1298.45	328
1303.98	728
1309.5	496
1315.02	236
1320.53	186
1326.04	184
1331.54	166
1337.04	140
1342.53	144
1348.02	166
1353.5	166
1358.98	138
1364.45	138
1369.91	178
1375.37	316
1380.82	376
1386.27	252
1391.71	148
1397.15	130
1402.58	136
1408.01	130
1413.43	132
1418.85	154
1424.26	168
1429.66	166
1435.06	192
1440.46	194
1445.85	208
1451.23	148
1456.61	144
1461.98	160
1467.35	148
1472.71	146
1478.07	146
1483.42	136
1488.77	120
1494.11	118
1499.45	104
1504.78	114
1510.11	106
1515.43	104
1520.74	110
1526.05	102
1531.36	104
1536.66	106
1541.95	102
1547.24	108
1552.52	106
1557.8	108
1563.08	116
1568.35	112
1573.61	128
1578.87	142
1584.12	156
1589.37	212
1594.61	326
1599.85	426
1605.08	452
1610.31	350
1615.53	244
1620.75	164
1625.96	120
1631.17	98
1636.37	92
1641.57	90
1646.76	86
1651.95	72
1657.13	78
1662.31	78
1667.48	76
1672.65	72
1677.81	80
1682.97	78
1688.12	74
1693.27	72
1698.41	78
1702.26	74