File: Jesse_Dataset_v2/Pure Raman/Polypropylene oxide/785nm/ps-ppo-6jan25-0,0000-map2_Y01_X01.txt
204.377	398
211.048	348
217.712	364
224.369	496
231.019	924
237.661	958
244.297	668
250.924	410
257.546	274
264.16	214
270.766	182
277.365	196
283.958	234
290.543	390
297.121	444
303.693	340
310.256	266
316.813	256
323.362	240
329.905	272
336.441	268
342.969	236
349.491	212
356.006	238
362.513	200
369.014	192
375.508	200
381.994	158
388.473	146
394.947	126
401.412	136
407.871	154
414.323	226
420.768	164
427.206	114
433.637	106
440.062	80
446.479	76
452.89	76
459.293	80
465.691	96
472.081	152
478.463	230
484.84	292
491.21	180
497.573	118
503.929	102
510.279	164
516.621	180
522.957	170
529.287	224
535.609	426
541.925	432
548.234	234
554.536	212
560.832	428
567.12	1494
573.403	2094
579.679	546
585.948	352
592.211	288
598.466	218
604.715	128
610.958	90
617.194	96
623.424	106
629.647	136
635.864	154
642.074	136
648.276	108
654.473	92
660.664	74
666.847	70
673.025	66
679.195	64
685.36	58
691.517	56
697.669	66
703.814	66
709.953	94
716.085	102
722.21	80
728.33	76
734.443	88
740.549	90
746.65	144
752.743	122
758.831	90
764.912	76
770.986	76
777.055	80
783.117	88
789.173	74
795.222	66
801.265	76
807.302	84
813.333	70
819.357	88
825.376	126
831.387	494
837.392	264
843.392	114
849.386	100
855.372	88
861.353	82
867.328	78
873.296	64
879.258	64
885.214	56
891.164	58
897.108	54
903.046	58
908.977	60
914.903	64
920.822	62
926.735	62
932.643	64
938.543	76
944.439	104
950.328	140
956.21	314
962.088	392
967.958	238
973.824	128
979.682	90
985.534	82
991.382	80
997.222	72
1003.06	56
1008.89	68
1014.71	70
1020.53	74
1026.34	82
1032.14	100
1037.94	86
1043.73	92
1049.52	68
1055.3	72
1061.08	62
1066.85	70
1072.61	60
1078.37	68
1084.12	70
1089.87	68
1095.61	72
1101.34	80
1107.07	150
1112.8	362
1118.51	170
1124.22	106
1129.93	84
1135.63	86
1141.32	90
1147.01	80
1152.69	74
1158.37	88
1164.04	100
1169.71	92
1175.37	102
1181.02	150
1186.67	240
1192.31	166
1197.95	154
1203.58	174
1209.2	140
1214.82	100
1220.44	88
1226.05	118
1231.65	140
1237.25	96
1242.84	88
1248.42	92
1254	88
1259.58	88
1265.15	92
1270.71	98
1276.27	114
1281.82	130
1287.37	164
1292.91	184
1298.45	356
1303.98	778
1309.5	532
1315.02	280
1320.53	202
1326.04	186
1331.54	164
1337.04	144
1342.53	158
1348.02	162
1353.5	160
1358.98	146
1364.45	156
1369.91	184
1375.37	360
1380.82	446
1386.27	284
1391.71	176
1397.15	158
1402.58	144
1408.01	134
1413.43	134
1418.85	160
1424.26	186
1429.66	190
1435.06	212
1440.46	222
1445.85	200
1451.23	180
1456.61	164
1461.98	164
1467.35	158
1472.71	150
1478.07	138
1483.42	130
1488.77	136
1494.11	122
1499.45	122
1504.78	122
1510.11	112
1515.43	106
1520.74	114
1526.05	108
1531.36	98
1536.66	106
1541.95	116
1547.24	112
1552.52	106
1557.8	108
1563.08	108
1568.35	122
1573.61	140
1578.87	152
1584.12	184
1589.37	250
1594.61	334
1599.85	482
1605.08	478
1610.31	374
1615.53	254
1620.75	178
1625.96	126
1631.17	114
1636.37	100
1641.57	90
1646.76	104
1651.95	84
1657.13	86
1662.31	86
1667.48	78
1672.65	74
1677.81	86
1682.97	82
1688.12	88
1693.27	84
1698.41	80
1702.26	82