File: Jesse_Dataset_v2/Pure Raman/Polypropylene oxide/785nm/ps-ppo-6jan25-0,0000-map2_Y08_X04.txt
204.377	334
211.048	280
217.712	304
224.369	428
231.019	814
237.661	796
244.297	556
250.924	360
257.546	238
264.16	192
270.766	162
277.365	170
283.958	212
290.543	324
297.121	374
303.693	294
310.256	240
316.813	202
323.362	204
329.905	232
336.441	228
342.969	184
349.491	196
356.006	188
362.513	172
369.014	168
375.508	166
381.994	138
388.473	126
394.947	112
401.412	118
407.871	138
414.323	190
420.768	162
427.206	110
433.637	92
440.062	80
446.479	74
452.89	66
459.293	78
465.691	86
472.081	134
478.463	186
484.84	274
491.21	158
497.573	106
503.929	80
510.279	152
516.621	164
522.957	148
529.287	212
535.609	358
541.925	352
548.234	196
554.536	194
560.832	352
567.12	1278
573.403	1656
579.679	430
585.948	292
592.211	236
598.466	184
604.715	108
610.958	84
617.194	82
623.424	100
629.647	114
635.864	136
642.074	94
648.276	94
654.473	72
660.664	66
666.847	64
673.025	62
679.195	56
685.36	62
691.517	60
697.669	52
703.814	52
709.953	72
716.085	84
722.21	74
728.33	72
734.443	76
740.549	80
746.65	124
752.743	118
758.831	78
764.912	64
770.986	56
777.055	74
783.117	70
789.173	66
795.222	62
801.265	58
807.302	70
813.333	66
819.357	78
825.376	120
831.387	432
837.392	220
843.392	96
849.386	88
855.372	86
861.353	74
867.328	64
873.296	58
879.258	64
885.214	52
891.164	64
897.108	54
903.046	56
908.977	52
914.903	52
920.822	52
926.735	56
932.643	58
938.543	66
944.439	96
950.328	140
956.21	270
962.088	316
967.958	196
973.824	124
979.682	84
985.534	70
991.382	64
997.222	54
1003.06	58
1008.89	54
1014.71	68
1020.53	68
1026.34	78
1032.14	90
1037.94	90
1043.73	76
1049.52	70
1055.3	60
1061.08	58
1066.85	56
1072.61	58
1078.37	60
1084.12	62
1089.87	58
1095.61	62
1101.34	78
1107.07	130
1112.8	298
1118.51	150
1124.22	96
1129.93	88
1135.63	86
1141.32	80
1147.01	72
1152.69	74
1158.37	84
1164.04	90
1169.71	82
1175.37	86
1181.02	136
1186.67	216
1192.31	150
1197.95	152
1203.58	150
1209.2	110
1214.82	84
1220.44	80
1226.05	90
1231.65	114
1237.25	92
1242.84	90
1248.42	76
1254	84
1259.58	84
1265.15	96
1270.71	82
1276.27	98
1281.82	112
1287.37	136
1292.91	174
1298.45	304
1303.98	672
1309.5	448
1315.02	224
1320.53	156
1326.04	176
1331.54	152
1337.04	130
1342.53	140
1348.02	154
1353.5	138
1358.98	142
1364.45	134
1369.91	162
1375.37	290
1380.82	372
1386.27	232
1391.71	148
1397.15	112
1402.58	130
1408.01	122
1413.43	128
1418.85	148
1424.26	160
1429.66	170
1435.06	186
1440.46	200
1445.85	170
1451.23	160
1456.61	150
1461.98	152
1467.35	142
1472.71	132
1478.07	136
1483.42	124
1488.77	108
1494.11	106
1499.45	102
1504.78	108
1510.11	104
1515.43	108
1520.74	96
1526.05	100
1531.36	98
1536.66	104
1541.95	100
1547.24	94
1552.52	106
1557.8	96
1563.08	106
1568.35	108
1573.61	114
1578.87	124
1584.12	164
1589.37	206
1594.61	304
1599.85	392
1605.08	386
1610.31	312
1615.53	224
1620.75	156
1625.96	114
1631.17	90
1636.37	84
1641.57	78
1646.76	78
1651.95	80
1657.13	74
1662.31	80
1667.48	78
1672.65	70
1677.81	82
1682.97	78
1688.12	68
1693.27	74
1698.41	68
1702.26	80