File: Jesse_Dataset_v2/Pure Raman/Polypropylene oxide/785nm/ps-ppo-6jan25-0,0000-map2_Y07_X01.txt
204.377	382
211.048	334
217.712	328
224.369	484
231.019	918
237.661	902
244.297	638
250.924	400
257.546	270
264.16	206
270.766	182
277.365	188
283.958	240
290.543	368
297.121	422
303.693	348
310.256	266
316.813	242
323.362	230
329.905	250
336.441	254
342.969	240
349.491	200
356.006	224
362.513	178
369.014	188
375.508	194
381.994	148
388.473	138
394.947	126
401.412	128
407.871	148
414.323	220
420.768	162
427.206	118
433.637	102
440.062	80
446.479	78
452.89	76
459.293	74
465.691	108
472.081	150
478.463	216
484.84	300
491.21	168
497.573	110
503.929	96
510.279	164
516.621	164
522.957	162
529.287	232
535.609	430
541.925	394
548.234	228
554.536	218
560.832	394
567.12	1458
573.403	1962
579.679	484
585.948	320
592.211	260
598.466	208
604.715	114
610.958	88
617.194	98
623.424	106
629.647	134
635.864	146
642.074	124
648.276	106
654.473	86
660.664	76
666.847	58
673.025	54
679.195	52
685.36	64
691.517	60
697.669	60
703.814	64
709.953	82
716.085	104
722.21	72
728.33	74
734.443	84
740.549	88
746.65	136
752.743	112
758.831	88
764.912	68
770.986	70
777.055	70
783.117	80
789.173	72
795.222	64
801.265	70
807.302	70
813.333	70
819.357	84
825.376	126
831.387	492
837.392	236
843.392	104
849.386	94
855.372	82
861.353	82
867.328	74
873.296	66
879.258	56
885.214	64
891.164	52
897.108	56
903.046	56
908.977	54
914.903	58
920.822	54
926.735	58
932.643	70
938.543	70
944.439	88
950.328	154
956.21	322
962.088	362
967.958	222
973.824	138
979.682	82
985.534	72
991.382	80
997.222	64
1003.06	62
1008.89	64
1014.71	62
1020.53	76
1026.34	82
1032.14	94
1037.94	88
1043.73	82
1049.52	66
1055.3	62
1061.08	66
1066.85	58
1072.61	66
1078.37	58
1084.12	60
1089.87	66
1095.61	70
1101.34	82
1107.07	144
1112.8	336
1118.51	156
1124.22	110
1129.93	84
1135.63	84
1141.32	90
1147.01	78
1152.69	66
1158.37	84
1164.04	82
1169.71	80
1175.37	102
1181.02	140
1186.67	242
1192.31	176
1197.95	170
1203.58	174
1209.2	114
1214.82	88
1220.44	86
1226.05	110
1231.65	130
1237.25	92
1242.84	96
1248.42	78
1254	88
1259.58	80
1265.15	96
1270.71	96
1276.27	112
1281.82	124
1287.37	140
1292.91	178
1298.45	342
1303.98	706
1309.5	526
1315.02	266
1320.53	206
1326.04	178
1331.54	160
1337.04	148
1342.53	152
1348.02	172
1353.5	160
1358.98	156
1364.45	148
1369.91	174
1375.37	336
1380.82	418
1386.27	272
1391.71	152
1397.15	132
1402.58	142
1408.01	136
1413.43	150
1418.85	156
1424.26	182
1429.66	190
1435.06	186
1440.46	210
1445.85	188
1451.23	158
1456.61	162
1461.98	150
1467.35	154
1472.71	152
1478.07	152
1483.42	126
1488.77	112
1494.11	126
1499.45	118
1504.78	120
1510.11	112
1515.43	110
1520.74	100
1526.05	112
1531.36	108
1536.66	102
1541.95	98
1547.24	104
1552.52	112
1557.8	104
1563.08	110
1568.35	116
1573.61	130
1578.87	130
1584.12	168
1589.37	226
1594.61	320
1599.85	466
1605.08	474
1610.31	346
1615.53	242
1620.75	172
1625.96	120
1631.17	112
1636.37	98
1641.57	80
1646.76	90
1651.95	86
1657.13	88
1662.31	76
1667.48	68
1672.65	80
1677.81	80
1682.97	78
1688.12	82
1693.27	72
1698.41	76
1702.26	86