File: Jesse_Dataset_v2/Pure Raman/Polypropylene oxide/785nm/ps-ppo-6jan25-0,0000-map2_Y03_X04.txt
204.377	386
211.048	332
217.712	330
224.369	460
231.019	874
237.661	900
244.297	624
250.924	392
257.546	262
264.16	206
270.766	174
277.365	184
283.958	224
290.543	348
297.121	416
303.693	320
310.256	258
316.813	218
323.362	240
329.905	256
336.441	234
342.969	208
349.491	204
356.006	216
362.513	184
369.014	196
375.508	184
381.994	144
388.473	128
394.947	126
401.412	128
407.871	150
414.323	220
420.768	160
427.206	112
433.637	102
440.062	82
446.479	74
452.89	78
459.293	76
465.691	104
472.081	134
478.463	208
484.84	280
491.21	168
497.573	110
503.929	94
510.279	160
516.621	160
522.957	144
529.287	218
535.609	398
541.925	402
548.234	224
554.536	198
560.832	408
567.12	1360
573.403	1910
579.679	484
585.948	318
592.211	260
598.466	208
604.715	118
610.958	92
617.194	90
623.424	98
629.647	136
635.864	148
642.074	126
648.276	106
654.473	80
660.664	68
666.847	60
673.025	66
679.195	58
685.36	58
691.517	52
697.669	56
703.814	62
709.953	86
716.085	88
722.21	70
728.33	84
734.443	84
740.549	88
746.65	138
752.743	106
758.831	90
764.912	78
770.986	78
777.055	80
783.117	70
789.173	76
795.222	66
801.265	68
807.302	68
813.333	70
819.357	76
825.376	134
831.387	472
837.392	228
843.392	106
849.386	82
855.372	96
861.353	88
867.328	68
873.296	66
879.258	64
885.214	64
891.164	58
897.108	58
903.046	66
908.977	58
914.903	58
920.822	52
926.735	56
932.643	62
938.543	72
944.439	80
950.328	156
956.21	296
962.088	340
967.958	232
973.824	136
979.682	86
985.534	72
991.382	80
997.222	66
1003.06	68
1008.89	66
1014.71	66
1020.53	70
1026.34	86
1032.14	100
1037.94	104
1043.73	82
1049.52	74
1055.3	70
1061.08	64
1066.85	66
1072.61	62
1078.37	68
1084.12	64
1089.87	68
1095.61	64
1101.34	74
1107.07	140
1112.8	366
1118.51	156
1124.22	106
1129.93	86
1135.63	84
1141.32	88
1147.01	78
1152.69	72
1158.37	82
1164.04	86
1169.71	86
1175.37	94
1181.02	142
1186.67	240
1192.31	160
1197.95	152
1203.58	172
1209.2	126
1214.82	92
1220.44	88
1226.05	104
1231.65	126
1237.25	98
1242.84	84
1248.42	86
1254	92
1259.58	84
1265.15	98
1270.71	98
1276.27	106
1281.82	120
1287.37	144
1292.91	202
1298.45	344
1303.98	764
1309.5	512
1315.02	262
1320.53	172
1326.04	178
1331.54	192
1337.04	148
1342.53	154
1348.02	168
1353.5	168
1358.98	154
1364.45	144
1369.91	172
1375.37	336
1380.82	410
1386.27	278
1391.71	166
1397.15	134
1402.58	142
1408.01	144
1413.43	146
1418.85	148
1424.26	172
1429.66	184
1435.06	196
1440.46	204
1445.85	186
1451.23	172
1456.61	154
1461.98	152
1467.35	150
1472.71	156
1478.07	150
1483.42	134
1488.77	134
1494.11	120
1499.45	114
1504.78	110
1510.11	110
1515.43	114
1520.74	104
1526.05	114
1531.36	98
1536.66	104
1541.95	102
1547.24	112
1552.52	110
1557.8	106
1563.08	110
1568.35	120
1573.61	122
1578.87	140
1584.12	160
1589.37	236
1594.61	328
1599.85	436
1605.08	446
1610.31	354
1615.53	256
1620.75	168
1625.96	124
1631.17	110
1636.37	96
1641.57	88
1646.76	84
1651.95	84
1657.13	78
1662.31	86
1667.48	80
1672.65	74
1677.81	82
1682.97	84
1688.12	72
1693.27	82
1698.41	84
1702.26	80