File: Jesse_Dataset_v2/Pure Raman/Polypropylene oxide/785nm/ps-ppo-6jan25-0,0000-map2_Y06_X02.txt
204.377	392
211.048	336
217.712	342
224.369	510
231.019	922
237.661	930
244.297	636
250.924	408
257.546	274
264.16	200
270.766	188
277.365	188
283.958	238
290.543	374
297.121	430
303.693	326
310.256	270
316.813	216
323.362	232
329.905	262
336.441	264
342.969	226
349.491	198
356.006	208
362.513	198
369.014	190
375.508	192
381.994	144
388.473	132
394.947	122
401.412	134
407.871	162
414.323	224
420.768	166
427.206	118
433.637	94
440.062	84
446.479	80
452.89	70
459.293	88
465.691	108
472.081	148
478.463	210
484.84	292
491.21	178
497.573	118
503.929	98
510.279	164
516.621	170
522.957	160
529.287	234
535.609	390
541.925	406
548.234	224
554.536	218
560.832	410
567.12	1494
573.403	2012
579.679	502
585.948	324
592.211	244
598.466	210
604.715	116
610.958	106
617.194	86
623.424	118
629.647	134
635.864	154
642.074	132
648.276	108
654.473	84
660.664	72
666.847	64
673.025	60
679.195	58
685.36	68
691.517	62
697.669	62
703.814	64
709.953	76
716.085	104
722.21	82
728.33	74
734.443	76
740.549	90
746.65	142
752.743	120
758.831	104
764.912	64
770.986	74
777.055	80
783.117	68
789.173	66
795.222	58
801.265	68
807.302	72
813.333	72
819.357	94
825.376	140
831.387	506
837.392	248
843.392	96
849.386	100
855.372	88
861.353	84
867.328	74
873.296	66
879.258	62
885.214	64
891.164	60
897.108	56
903.046	60
908.977	58
914.903	60
920.822	62
926.735	56
932.643	62
938.543	72
944.439	98
950.328	154
956.21	292
962.088	372
967.958	232
973.824	138
979.682	82
985.534	72
991.382	76
997.222	68
1003.06	64
1008.89	64
1014.71	62
1020.53	80
1026.34	78
1032.14	96
1037.94	96
1043.73	80
1049.52	72
1055.3	64
1061.08	62
1066.85	58
1072.61	58
1078.37	58
1084.12	66
1089.87	68
1095.61	68
1101.34	82
1107.07	148
1112.8	344
1118.51	158
1124.22	96
1129.93	88
1135.63	74
1141.32	88
1147.01	76
1152.69	80
1158.37	86
1164.04	88
1169.71	74
1175.37	94
1181.02	150
1186.67	246
1192.31	170
1197.95	166
1203.58	178
1209.2	128
1214.82	96
1220.44	82
1226.05	110
1231.65	122
1237.25	98
1242.84	84
1248.42	88
1254	92
1259.58	88
1265.15	102
1270.71	106
1276.27	104
1281.82	124
1287.37	164
1292.91	192
1298.45	354
1303.98	776
1309.5	530
1315.02	284
1320.53	210
1326.04	184
1331.54	154
1337.04	138
1342.53	142
1348.02	172
1353.5	176
1358.98	140
1364.45	156
1369.91	180
1375.37	332
1380.82	430
1386.27	278
1391.71	148
1397.15	130
1402.58	142
1408.01	128
1413.43	144
1418.85	162
1424.26	168
1429.66	178
1435.06	194
1440.46	214
1445.85	192
1451.23	168
1456.61	164
1461.98	156
1467.35	154
1472.71	154
1478.07	150
1483.42	140
1488.77	130
1494.11	112
1499.45	110
1504.78	114
1510.11	112
1515.43	108
1520.74	110
1526.05	114
1531.36	114
1536.66	116
1541.95	114
1547.24	106
1552.52	108
1557.8	112
1563.08	104
1568.35	112
1573.61	128
1578.87	142
1584.12	186
1589.37	244
1594.61	334
1599.85	478
1605.08	452
1610.31	374
1615.53	272
1620.75	152
1625.96	126
1631.17	100
1636.37	92
1641.57	98
1646.76	88
1651.95	88
1657.13	84
1662.31	84
1667.48	78
1672.65	82
1677.81	78
1682.97	70
1688.12	82
1693.27	80
1698.41	76
1702.26	84