File: Jesse_Dataset_v2/Pure Raman/Polypropylene oxide/785nm/ps-ppo-6jan25-0,0000-map2_Y08_X05.txt
204.377	364
211.048	326
217.712	310
224.369	446
231.019	818
237.661	834
244.297	554
250.924	370
257.546	236
264.16	198
270.766	182
277.365	166
283.958	212
290.543	344
297.121	398
303.693	304
310.256	244
316.813	222
323.362	220
329.905	230
336.441	244
342.969	210
349.491	198
356.006	214
362.513	188
369.014	178
375.508	170
381.994	134
388.473	134
394.947	116
401.412	122
407.871	156
414.323	198
420.768	176
427.206	114
433.637	94
440.062	76
446.479	76
452.89	80
459.293	86
465.691	104
472.081	136
478.463	214
484.84	264
491.21	164
497.573	116
503.929	106
510.279	144
516.621	162
522.957	148
529.287	220
535.609	382
541.925	372
548.234	200
554.536	188
560.832	384
567.12	1346
573.403	1778
579.679	432
585.948	288
592.211	246
598.466	188
604.715	118
610.958	94
617.194	96
623.424	96
629.647	124
635.864	146
642.074	124
648.276	94
654.473	82
660.664	82
666.847	64
673.025	56
679.195	60
685.36	58
691.517	56
697.669	52
703.814	60
709.953	78
716.085	90
722.21	74
728.33	74
734.443	78
740.549	86
746.65	126
752.743	114
758.831	80
764.912	64
770.986	68
777.055	64
783.117	70
789.173	66
795.222	66
801.265	70
807.302	64
813.333	78
819.357	78
825.376	128
831.387	450
837.392	208
843.392	96
849.386	94
855.372	80
861.353	74
867.328	72
873.296	56
879.258	64
885.214	60
891.164	52
897.108	58
903.046	48
908.977	62
914.903	52
920.822	54
926.735	56
932.643	64
938.543	64
944.439	84
950.328	142
956.21	268
962.088	320
967.958	206
973.824	124
979.682	76
985.534	72
991.382	70
997.222	62
1003.06	62
1008.89	58
1014.71	64
1020.53	74
1026.34	76
1032.14	90
1037.94	96
1043.73	84
1049.52	74
1055.3	60
1061.08	62
1066.85	66
1072.61	64
1078.37	58
1084.12	70
1089.87	66
1095.61	62
1101.34	80
1107.07	126
1112.8	330
1118.51	144
1124.22	94
1129.93	88
1135.63	86
1141.32	82
1147.01	70
1152.69	78
1158.37	82
1164.04	90
1169.71	88
1175.37	82
1181.02	122
1186.67	224
1192.31	152
1197.95	146
1203.58	166
1209.2	124
1214.82	92
1220.44	84
1226.05	104
1231.65	124
1237.25	82
1242.84	86
1248.42	86
1254	84
1259.58	82
1265.15	92
1270.71	100
1276.27	92
1281.82	122
1287.37	136
1292.91	172
1298.45	314
1303.98	654
1309.5	454
1315.02	240
1320.53	182
1326.04	166
1331.54	152
1337.04	144
1342.53	136
1348.02	148
1353.5	158
1358.98	146
1364.45	148
1369.91	166
1375.37	322
1380.82	380
1386.27	250
1391.71	160
1397.15	122
1402.58	134
1408.01	128
1413.43	136
1418.85	150
1424.26	154
1429.66	170
1435.06	204
1440.46	200
1445.85	178
1451.23	158
1456.61	160
1461.98	138
1467.35	128
1472.71	134
1478.07	132
1483.42	124
1488.77	124
1494.11	108
1499.45	116
1504.78	104
1510.11	98
1515.43	112
1520.74	100
1526.05	104
1531.36	104
1536.66	88
1541.95	98
1547.24	102
1552.52	104
1557.8	98
1563.08	108
1568.35	102
1573.61	124
1578.87	126
1584.12	168
1589.37	214
1594.61	298
1599.85	410
1605.08	424
1610.31	320
1615.53	234
1620.75	162
1625.96	116
1631.17	100
1636.37	94
1641.57	84
1646.76	78
1651.95	76
1657.13	76
1662.31	84
1667.48	78
1672.65	72
1677.81	76
1682.97	74
1688.12	76
1693.27	74
1698.41	78
1702.26	64