File: Jesse_Dataset_v2/Pure Raman/Polypropylene oxide/785nm/ps-ppo-6jan25-0,0000-map2_Y09_X09.txt
204.377	370
211.048	334
217.712	342
224.369	466
231.019	908
237.661	902
244.297	598
250.924	412
257.546	262
264.16	216
270.766	164
277.365	186
283.958	234
290.543	368
297.121	418
303.693	306
310.256	264
316.813	244
323.362	218
329.905	266
336.441	252
342.969	206
349.491	192
356.006	216
362.513	194
369.014	186
375.508	198
381.994	154
388.473	134
394.947	114
401.412	128
407.871	150
414.323	204
420.768	160
427.206	116
433.637	96
440.062	94
446.479	76
452.89	72
459.293	80
465.691	104
472.081	150
478.463	220
484.84	298
491.21	174
497.573	114
503.929	104
510.279	152
516.621	164
522.957	152
529.287	242
535.609	400
541.925	410
548.234	216
554.536	218
560.832	408
567.12	1414
573.403	1954
579.679	476
585.948	328
592.211	264
598.466	210
604.715	116
610.958	94
617.194	92
623.424	106
629.647	126
635.864	142
642.074	114
648.276	104
654.473	92
660.664	68
666.847	72
673.025	60
679.195	66
685.36	62
691.517	66
697.669	62
703.814	56
709.953	72
716.085	98
722.21	82
728.33	72
734.443	80
740.549	98
746.65	130
752.743	116
758.831	92
764.912	70
770.986	66
777.055	70
783.117	76
789.173	72
795.222	68
801.265	68
807.302	72
813.333	78
819.357	78
825.376	132
831.387	508
837.392	250
843.392	108
849.386	96
855.372	94
861.353	78
867.328	76
873.296	64
879.258	56
885.214	54
891.164	56
897.108	62
903.046	60
908.977	58
914.903	52
920.822	66
926.735	60
932.643	72
938.543	74
944.439	90
950.328	152
956.21	286
962.088	354
967.958	206
973.824	134
979.682	76
985.534	70
991.382	82
997.222	62
1003.06	66
1008.89	60
1014.71	58
1020.53	78
1026.34	84
1032.14	104
1037.94	88
1043.73	80
1049.52	76
1055.3	70
1061.08	66
1066.85	66
1072.61	64
1078.37	68
1084.12	66
1089.87	70
1095.61	74
1101.34	82
1107.07	140
1112.8	352
1118.51	148
1124.22	82
1129.93	86
1135.63	86
1141.32	86
1147.01	74
1152.69	78
1158.37	86
1164.04	94
1169.71	86
1175.37	100
1181.02	150
1186.67	248
1192.31	168
1197.95	140
1203.58	176
1209.2	134
1214.82	94
1220.44	94
1226.05	108
1231.65	136
1237.25	102
1242.84	86
1248.42	84
1254	90
1259.58	88
1265.15	98
1270.71	90
1276.27	94
1281.82	122
1287.37	148
1292.91	176
1298.45	358
1303.98	756
1309.5	494
1315.02	256
1320.53	184
1326.04	180
1331.54	170
1337.04	132
1342.53	136
1348.02	152
1353.5	168
1358.98	148
1364.45	148
1369.91	168
1375.37	332
1380.82	412
1386.27	274
1391.71	158
1397.15	144
1402.58	130
1408.01	136
1413.43	138
1418.85	154
1424.26	174
1429.66	178
1435.06	192
1440.46	216
1445.85	192
1451.23	160
1456.61	162
1461.98	148
1467.35	156
1472.71	152
1478.07	134
1483.42	130
1488.77	120
1494.11	122
1499.45	108
1504.78	120
1510.11	114
1515.43	118
1520.74	102
1526.05	98
1531.36	100
1536.66	110
1541.95	100
1547.24	102
1552.52	100
1557.8	118
1563.08	118
1568.35	120
1573.61	126
1578.87	140
1584.12	188
1589.37	234
1594.61	322
1599.85	436
1605.08	444
1610.31	340
1615.53	250
1620.75	154
1625.96	120
1631.17	106
1636.37	102
1641.57	96
1646.76	84
1651.95	84
1657.13	82
1662.31	90
1667.48	74
1672.65	74
1677.81	78
1682.97	80
1688.12	78
1693.27	80
1698.41	74
1702.26	74