File: Jesse_Dataset_v2/Pure Raman/Polypropylene oxide/785nm/ps-ppo-6jan25-0,0000-map2_Y07_X05.txt
204.377	362
211.048	314
217.712	316
224.369	446
231.019	846
237.661	854
244.297	572
250.924	372
257.546	250
264.16	196
270.766	160
277.365	160
283.958	202
290.543	350
297.121	408
303.693	310
310.256	242
316.813	224
323.362	214
329.905	232
336.441	240
342.969	192
349.491	184
356.006	204
362.513	190
369.014	174
375.508	176
381.994	140
388.473	134
394.947	122
401.412	120
407.871	142
414.323	212
420.768	146
427.206	108
433.637	96
440.062	74
446.479	82
452.89	72
459.293	88
465.691	98
472.081	148
478.463	204
484.84	246
491.21	156
497.573	110
503.929	96
510.279	154
516.621	162
522.957	154
529.287	226
535.609	392
541.925	362
548.234	212
554.536	202
560.832	386
567.12	1334
573.403	1798
579.679	442
585.948	306
592.211	244
598.466	188
604.715	102
610.958	98
617.194	80
623.424	94
629.647	120
635.864	144
642.074	124
648.276	96
654.473	76
660.664	66
666.847	64
673.025	56
679.195	64
685.36	62
691.517	58
697.669	66
703.814	60
709.953	76
716.085	94
722.21	72
728.33	74
734.443	74
740.549	90
746.65	130
752.743	112
758.831	86
764.912	58
770.986	68
777.055	70
783.117	82
789.173	72
795.222	62
801.265	64
807.302	74
813.333	72
819.357	80
825.376	128
831.387	448
837.392	224
843.392	110
849.386	86
855.372	84
861.353	80
867.328	58
873.296	68
879.258	62
885.214	62
891.164	48
897.108	54
903.046	54
908.977	54
914.903	54
920.822	62
926.735	56
932.643	58
938.543	66
944.439	84
950.328	140
956.21	282
962.088	318
967.958	212
973.824	126
979.682	80
985.534	72
991.382	72
997.222	58
1003.06	62
1008.89	58
1014.71	64
1020.53	72
1026.34	84
1032.14	102
1037.94	88
1043.73	74
1049.52	68
1055.3	64
1061.08	64
1066.85	60
1072.61	62
1078.37	72
1084.12	62
1089.87	62
1095.61	70
1101.34	68
1107.07	138
1112.8	324
1118.51	150
1124.22	94
1129.93	78
1135.63	78
1141.32	78
1147.01	76
1152.69	78
1158.37	72
1164.04	96
1169.71	76
1175.37	98
1181.02	134
1186.67	222
1192.31	154
1197.95	144
1203.58	170
1209.2	122
1214.82	90
1220.44	84
1226.05	114
1231.65	132
1237.25	92
1242.84	92
1248.42	96
1254	84
1259.58	82
1265.15	96
1270.71	92
1276.27	100
1281.82	128
1287.37	148
1292.91	172
1298.45	342
1303.98	698
1309.5	456
1315.02	242
1320.53	168
1326.04	166
1331.54	154
1337.04	146
1342.53	134
1348.02	154
1353.5	164
1358.98	128
1364.45	136
1369.91	156
1375.37	330
1380.82	388
1386.27	250
1391.71	146
1397.15	136
1402.58	134
1408.01	120
1413.43	142
1418.85	144
1424.26	178
1429.66	166
1435.06	184
1440.46	192
1445.85	166
1451.23	164
1456.61	148
1461.98	160
1467.35	128
1472.71	148
1478.07	140
1483.42	116
1488.77	116
1494.11	108
1499.45	102
1504.78	104
1510.11	98
1515.43	102
1520.74	94
1526.05	104
1531.36	106
1536.66	98
1541.95	96
1547.24	106
1552.52	110
1557.8	96
1563.08	104
1568.35	108
1573.61	106
1578.87	136
1584.12	158
1589.37	216
1594.61	310
1599.85	428
1605.08	418
1610.31	318
1615.53	242
1620.75	148
1625.96	134
1631.17	102
1636.37	100
1641.57	82
1646.76	76
1651.95	88
1657.13	88
1662.31	76
1667.48	82
1672.65	76
1677.81	78
1682.97	64
1688.12	72
1693.27	74
1698.41	72
1702.26	84