File: Jesse_Dataset_v2/Pure Raman/Polypropylene oxide/785nm/ps-ppo-6jan25-0,0000-map2_Y01_X02.txt
204.377	390
211.048	350
217.712	350
224.369	496
231.019	940
237.661	974
244.297	650
250.924	414
257.546	282
264.16	200
270.766	188
277.365	188
283.958	244
290.543	380
297.121	464
303.693	344
310.256	272
316.813	226
323.362	230
329.905	270
336.441	280
342.969	218
349.491	224
356.006	232
362.513	196
369.014	194
375.508	194
381.994	156
388.473	146
394.947	128
401.412	142
407.871	154
414.323	236
420.768	164
427.206	118
433.637	102
440.062	82
446.479	82
452.89	78
459.293	82
465.691	98
472.081	144
478.463	216
484.84	306
491.21	174
497.573	120
503.929	102
510.279	152
516.621	164
522.957	166
529.287	232
535.609	420
541.925	414
548.234	230
554.536	228
560.832	412
567.12	1496
573.403	2068
579.679	506
585.948	338
592.211	262
598.466	218
604.715	126
610.958	104
617.194	92
623.424	118
629.647	148
635.864	150
642.074	130
648.276	108
654.473	92
660.664	80
666.847	60
673.025	66
679.195	64
685.36	60
691.517	56
697.669	62
703.814	66
709.953	78
716.085	104
722.21	80
728.33	74
734.443	90
740.549	96
746.65	150
752.743	126
758.831	104
764.912	74
770.986	72
777.055	78
783.117	78
789.173	66
795.222	64
801.265	64
807.302	74
813.333	74
819.357	90
825.376	154
831.387	494
837.392	270
843.392	104
849.386	92
855.372	98
861.353	84
867.328	70
873.296	56
879.258	60
885.214	66
891.164	56
897.108	60
903.046	58
908.977	54
914.903	52
920.822	62
926.735	60
932.643	66
938.543	76
944.439	96
950.328	150
956.21	300
962.088	392
967.958	242
973.824	136
979.682	80
985.534	74
991.382	76
997.222	60
1003.06	58
1008.89	68
1014.71	72
1020.53	82
1026.34	90
1032.14	102
1037.94	98
1043.73	80
1049.52	68
1055.3	68
1061.08	54
1066.85	64
1072.61	58
1078.37	66
1084.12	68
1089.87	74
1095.61	70
1101.34	82
1107.07	142
1112.8	378
1118.51	172
1124.22	106
1129.93	84
1135.63	88
1141.32	90
1147.01	74
1152.69	78
1158.37	90
1164.04	96
1169.71	84
1175.37	98
1181.02	144
1186.67	234
1192.31	166
1197.95	160
1203.58	190
1209.2	132
1214.82	98
1220.44	96
1226.05	116
1231.65	120
1237.25	98
1242.84	84
1248.42	88
1254	90
1259.58	94
1265.15	96
1270.71	100
1276.27	114
1281.82	130
1287.37	170
1292.91	198
1298.45	358
1303.98	802
1309.5	554
1315.02	268
1320.53	190
1326.04	192
1331.54	172
1337.04	152
1342.53	164
1348.02	178
1353.5	184
1358.98	168
1364.45	140
1369.91	174
1375.37	346
1380.82	446
1386.27	288
1391.71	170
1397.15	146
1402.58	150
1408.01	142
1413.43	138
1418.85	164
1424.26	186
1429.66	188
1435.06	210
1440.46	238
1445.85	206
1451.23	192
1456.61	172
1461.98	172
1467.35	156
1472.71	158
1478.07	146
1483.42	132
1488.77	138
1494.11	118
1499.45	120
1504.78	118
1510.11	106
1515.43	120
1520.74	116
1526.05	106
1531.36	120
1536.66	108
1541.95	116
1547.24	118
1552.52	112
1557.8	112
1563.08	112
1568.35	134
1573.61	126
1578.87	146
1584.12	188
1589.37	258
1594.61	348
1599.85	478
1605.08	476
1610.31	360
1615.53	254
1620.75	182
1625.96	144
1631.17	122
1636.37	94
1641.57	92
1646.76	82
1651.95	96
1657.13	86
1662.31	86
1667.48	80
1672.65	80
1677.81	78
1682.97	80
1688.12	78
1693.27	82
1698.41	86
1702.26	80