File: Jesse_Dataset_v2/Pure Raman/Polypropylene oxide/785nm/ps-ppo-6jan25-0,0000-map2_Y00_X05.txt
204.377	374
211.048	328
217.712	302
224.369	462
231.019	892
237.661	912
244.297	626
250.924	408
257.546	262
264.16	198
270.766	178
277.365	174
283.958	232
290.543	352
297.121	430
303.693	328
310.256	260
316.813	224
323.362	218
329.905	236
336.441	266
342.969	200
349.491	192
356.006	216
362.513	196
369.014	194
375.508	186
381.994	156
388.473	124
394.947	134
401.412	126
407.871	156
414.323	198
420.768	164
427.206	120
433.637	88
440.062	92
446.479	78
452.89	72
459.293	84
465.691	94
472.081	150
478.463	210
484.84	282
491.21	174
497.573	106
503.929	94
510.279	164
516.621	174
522.957	156
529.287	218
535.609	404
541.925	390
548.234	224
554.536	204
560.832	390
567.12	1352
573.403	1870
579.679	482
585.948	324
592.211	252
598.466	190
604.715	118
610.958	90
617.194	94
623.424	108
629.647	130
635.864	144
642.074	118
648.276	98
654.473	84
660.664	72
666.847	70
673.025	62
679.195	64
685.36	70
691.517	64
697.669	62
703.814	62
709.953	76
716.085	98
722.21	74
728.33	76
734.443	76
740.549	100
746.65	144
752.743	118
758.831	84
764.912	70
770.986	70
777.055	68
783.117	78
789.173	70
795.222	70
801.265	66
807.302	78
813.333	72
819.357	84
825.376	138
831.387	448
837.392	248
843.392	104
849.386	92
855.372	88
861.353	84
867.328	62
873.296	68
879.258	62
885.214	58
891.164	60
897.108	64
903.046	58
908.977	58
914.903	56
920.822	56
926.735	60
932.643	62
938.543	80
944.439	86
950.328	138
956.21	272
962.088	350
967.958	220
973.824	128
979.682	86
985.534	76
991.382	72
997.222	64
1003.06	62
1008.89	60
1014.71	72
1020.53	78
1026.34	80
1032.14	96
1037.94	94
1043.73	88
1049.52	76
1055.3	68
1061.08	68
1066.85	60
1072.61	60
1078.37	70
1084.12	72
1089.87	72
1095.61	68
1101.34	82
1107.07	148
1112.8	340
1118.51	156
1124.22	110
1129.93	84
1135.63	86
1141.32	86
1147.01	74
1152.69	72
1158.37	80
1164.04	92
1169.71	84
1175.37	92
1181.02	128
1186.67	232
1192.31	172
1197.95	152
1203.58	164
1209.2	132
1214.82	102
1220.44	74
1226.05	106
1231.65	124
1237.25	100
1242.84	86
1248.42	82
1254	96
1259.58	88
1265.15	90
1270.71	96
1276.27	114
1281.82	122
1287.37	154
1292.91	180
1298.45	334
1303.98	742
1309.5	484
1315.02	258
1320.53	190
1326.04	174
1331.54	180
1337.04	142
1342.53	158
1348.02	172
1353.5	168
1358.98	152
1364.45	152
1369.91	178
1375.37	332
1380.82	422
1386.27	274
1391.71	166
1397.15	140
1402.58	138
1408.01	136
1413.43	144
1418.85	156
1424.26	176
1429.66	178
1435.06	208
1440.46	210
1445.85	188
1451.23	170
1456.61	160
1461.98	156
1467.35	156
1472.71	138
1478.07	154
1483.42	132
1488.77	126
1494.11	124
1499.45	124
1504.78	106
1510.11	122
1515.43	118
1520.74	110
1526.05	116
1531.36	112
1536.66	98
1541.95	116
1547.24	110
1552.52	106
1557.8	112
1563.08	120
1568.35	110
1573.61	120
1578.87	132
1584.12	172
1589.37	232
1594.61	342
1599.85	428
1605.08	442
1610.31	344
1615.53	252
1620.75	174
1625.96	142
1631.17	100
1636.37	94
1641.57	92
1646.76	94
1651.95	80
1657.13	86
1662.31	84
1667.48	72
1672.65	80
1677.81	76
1682.97	76
1688.12	82
1693.27	88
1698.41	76
1702.26	82