File: Jesse_Dataset_v2/Pure Raman/Polypropylene oxide/785nm/ps-ppo-6jan25-0,0000-map2_Y04_X01.txt
204.377	372
211.048	346
217.712	356
224.369	474
231.019	924
237.661	948
244.297	632
250.924	408
257.546	284
264.16	212
270.766	186
277.365	190
283.958	228
290.543	378
297.121	430
303.693	352
310.256	260
316.813	220
323.362	232
329.905	262
336.441	268
342.969	216
349.491	204
356.006	224
362.513	192
369.014	186
375.508	194
381.994	154
388.473	138
394.947	118
401.412	122
407.871	164
414.323	206
420.768	162
427.206	128
433.637	100
440.062	90
446.479	84
452.89	74
459.293	84
465.691	112
472.081	164
478.463	228
484.84	294
491.21	182
497.573	120
503.929	102
510.279	156
516.621	162
522.957	144
529.287	220
535.609	402
541.925	416
548.234	240
554.536	204
560.832	412
567.12	1444
573.403	1980
579.679	524
585.948	332
592.211	276
598.466	198
604.715	116
610.958	98
617.194	94
623.424	110
629.647	134
635.864	156
642.074	128
648.276	102
654.473	90
660.664	70
666.847	64
673.025	58
679.195	62
685.36	62
691.517	62
697.669	58
703.814	60
709.953	84
716.085	100
722.21	82
728.33	78
734.443	88
740.549	94
746.65	140
752.743	114
758.831	92
764.912	72
770.986	68
777.055	74
783.117	80
789.173	72
795.222	60
801.265	70
807.302	76
813.333	74
819.357	88
825.376	138
831.387	500
837.392	262
843.392	96
849.386	102
855.372	100
861.353	84
867.328	64
873.296	66
879.258	70
885.214	62
891.164	58
897.108	58
903.046	60
908.977	56
914.903	60
920.822	56
926.735	54
932.643	66
938.543	70
944.439	92
950.328	162
956.21	290
962.088	364
967.958	232
973.824	124
979.682	82
985.534	66
991.382	72
997.222	60
1003.06	64
1008.89	66
1014.71	58
1020.53	72
1026.34	84
1032.14	104
1037.94	88
1043.73	86
1049.52	76
1055.3	68
1061.08	64
1066.85	70
1072.61	62
1078.37	64
1084.12	62
1089.87	60
1095.61	66
1101.34	86
1107.07	136
1112.8	348
1118.51	150
1124.22	106
1129.93	92
1135.63	80
1141.32	86
1147.01	76
1152.69	66
1158.37	80
1164.04	92
1169.71	88
1175.37	94
1181.02	158
1186.67	236
1192.31	166
1197.95	158
1203.58	174
1209.2	136
1214.82	94
1220.44	90
1226.05	110
1231.65	128
1237.25	102
1242.84	86
1248.42	90
1254	88
1259.58	88
1265.15	94
1270.71	100
1276.27	104
1281.82	132
1287.37	150
1292.91	202
1298.45	340
1303.98	744
1309.5	546
1315.02	282
1320.53	208
1326.04	198
1331.54	182
1337.04	134
1342.53	150
1348.02	176
1353.5	172
1358.98	146
1364.45	152
1369.91	180
1375.37	326
1380.82	420
1386.27	288
1391.71	170
1397.15	142
1402.58	140
1408.01	134
1413.43	144
1418.85	168
1424.26	186
1429.66	196
1435.06	200
1440.46	220
1445.85	194
1451.23	184
1456.61	154
1461.98	154
1467.35	164
1472.71	138
1478.07	142
1483.42	136
1488.77	124
1494.11	120
1499.45	118
1504.78	118
1510.11	106
1515.43	116
1520.74	104
1526.05	102
1531.36	108
1536.66	108
1541.95	110
1547.24	102
1552.52	114
1557.8	114
1563.08	104
1568.35	108
1573.61	118
1578.87	132
1584.12	164
1589.37	232
1594.61	328
1599.85	454
1605.08	456
1610.31	346
1615.53	238
1620.75	180
1625.96	144
1631.17	110
1636.37	98
1641.57	96
1646.76	84
1651.95	86
1657.13	88
1662.31	80
1667.48	80
1672.65	74
1677.81	78
1682.97	78
1688.12	72
1693.27	82
1698.41	74
1702.26	72