File: Jesse_Dataset_v2/Pure Raman/Polypropylene oxide/785nm/ps-ppo-6jan25-0,0000-map2_Y05_X00.txt
204.377	362
211.048	336
217.712	332
224.369	490
231.019	874
237.661	928
244.297	630
250.924	400
257.546	252
264.16	196
270.766	158
277.365	180
283.958	232
290.543	368
297.121	438
303.693	334
310.256	268
316.813	232
323.362	240
329.905	268
336.441	252
342.969	230
349.491	210
356.006	206
362.513	192
369.014	202
375.508	184
381.994	146
388.473	136
394.947	126
401.412	128
407.871	148
414.323	204
420.768	162
427.206	120
433.637	106
440.062	84
446.479	80
452.89	76
459.293	84
465.691	100
472.081	148
478.463	216
484.84	278
491.21	178
497.573	102
503.929	102
510.279	144
516.621	168
522.957	146
529.287	220
535.609	428
541.925	406
548.234	220
554.536	206
560.832	384
567.12	1420
573.403	1966
579.679	500
585.948	324
592.211	250
598.466	196
604.715	112
610.958	90
617.194	96
623.424	108
629.647	130
635.864	156
642.074	124
648.276	104
654.473	92
660.664	78
666.847	72
673.025	64
679.195	60
685.36	62
691.517	56
697.669	60
703.814	66
709.953	80
716.085	108
722.21	72
728.33	78
734.443	84
740.549	94
746.65	138
752.743	108
758.831	98
764.912	68
770.986	70
777.055	72
783.117	84
789.173	70
795.222	66
801.265	68
807.302	82
813.333	74
819.357	76
825.376	132
831.387	456
837.392	244
843.392	112
849.386	94
855.372	84
861.353	84
867.328	74
873.296	58
879.258	64
885.214	58
891.164	62
897.108	54
903.046	58
908.977	64
914.903	50
920.822	50
926.735	56
932.643	66
938.543	72
944.439	98
950.328	142
956.21	300
962.088	372
967.958	228
973.824	144
979.682	86
985.534	74
991.382	76
997.222	64
1003.06	66
1008.89	66
1014.71	62
1020.53	72
1026.34	80
1032.14	90
1037.94	88
1043.73	86
1049.52	70
1055.3	70
1061.08	68
1066.85	60
1072.61	72
1078.37	60
1084.12	56
1089.87	66
1095.61	74
1101.34	80
1107.07	144
1112.8	338
1118.51	150
1124.22	106
1129.93	84
1135.63	78
1141.32	84
1147.01	76
1152.69	74
1158.37	76
1164.04	94
1169.71	84
1175.37	98
1181.02	150
1186.67	250
1192.31	176
1197.95	160
1203.58	170
1209.2	122
1214.82	96
1220.44	96
1226.05	112
1231.65	122
1237.25	90
1242.84	80
1248.42	88
1254	84
1259.58	88
1265.15	94
1270.71	102
1276.27	98
1281.82	132
1287.37	156
1292.91	186
1298.45	346
1303.98	744
1309.5	506
1315.02	258
1320.53	204
1326.04	170
1331.54	160
1337.04	138
1342.53	156
1348.02	160
1353.5	158
1358.98	142
1364.45	144
1369.91	174
1375.37	348
1380.82	424
1386.27	284
1391.71	152
1397.15	144
1402.58	138
1408.01	134
1413.43	150
1418.85	148
1424.26	176
1429.66	188
1435.06	194
1440.46	204
1445.85	188
1451.23	176
1456.61	160
1461.98	156
1467.35	144
1472.71	140
1478.07	142
1483.42	136
1488.77	122
1494.11	112
1499.45	114
1504.78	108
1510.11	106
1515.43	116
1520.74	104
1526.05	106
1531.36	124
1536.66	106
1541.95	116
1547.24	108
1552.52	110
1557.8	118
1563.08	114
1568.35	108
1573.61	122
1578.87	146
1584.12	174
1589.37	240
1594.61	330
1599.85	450
1605.08	456
1610.31	356
1615.53	252
1620.75	170
1625.96	132
1631.17	110
1636.37	94
1641.57	92
1646.76	88
1651.95	78
1657.13	88
1662.31	88
1667.48	70
1672.65	78
1677.81	80
1682.97	70
1688.12	78
1693.27	80
1698.41	80
1702.26	70