File: Jesse_Dataset_v2/Pure Raman/Polypropylene oxide/785nm/ps-ppo-6jan25-0,0000-map2_Y06_X03.txt
204.377	388
211.048	344
217.712	310
224.369	444
231.019	882
237.661	864
244.297	630
250.924	394
257.546	260
264.16	192
270.766	174
277.365	178
283.958	228
290.543	368
297.121	436
303.693	344
310.256	264
316.813	238
323.362	222
329.905	254
336.441	258
342.969	210
349.491	206
356.006	202
362.513	184
369.014	178
375.508	184
381.994	140
388.473	120
394.947	122
401.412	124
407.871	156
414.323	208
420.768	162
427.206	122
433.637	90
440.062	74
446.479	82
452.89	76
459.293	80
465.691	106
472.081	160
478.463	218
484.84	304
491.21	172
497.573	112
503.929	104
510.279	154
516.621	164
522.957	158
529.287	218
535.609	402
541.925	418
548.234	214
554.536	220
560.832	414
567.12	1390
573.403	1908
579.679	490
585.948	328
592.211	266
598.466	196
604.715	112
610.958	94
617.194	88
623.424	104
629.647	132
635.864	148
642.074	124
648.276	104
654.473	74
660.664	78
666.847	62
673.025	66
679.195	60
685.36	60
691.517	60
697.669	56
703.814	64
709.953	88
716.085	98
722.21	76
728.33	70
734.443	86
740.549	100
746.65	146
752.743	112
758.831	98
764.912	64
770.986	64
777.055	76
783.117	76
789.173	70
795.222	66
801.265	70
807.302	74
813.333	70
819.357	84
825.376	128
831.387	474
837.392	250
843.392	104
849.386	100
855.372	88
861.353	82
867.328	66
873.296	66
879.258	62
885.214	60
891.164	56
897.108	58
903.046	54
908.977	62
914.903	54
920.822	62
926.735	56
932.643	62
938.543	74
944.439	84
950.328	154
956.21	280
962.088	362
967.958	224
973.824	134
979.682	92
985.534	64
991.382	68
997.222	62
1003.06	66
1008.89	64
1014.71	66
1020.53	76
1026.34	86
1032.14	96
1037.94	98
1043.73	78
1049.52	76
1055.3	68
1061.08	72
1066.85	62
1072.61	62
1078.37	68
1084.12	68
1089.87	68
1095.61	70
1101.34	82
1107.07	140
1112.8	360
1118.51	148
1124.22	102
1129.93	92
1135.63	90
1141.32	90
1147.01	74
1152.69	78
1158.37	80
1164.04	90
1169.71	84
1175.37	104
1181.02	132
1186.67	242
1192.31	172
1197.95	160
1203.58	160
1209.2	132
1214.82	94
1220.44	92
1226.05	108
1231.65	124
1237.25	100
1242.84	88
1248.42	82
1254	86
1259.58	86
1265.15	96
1270.71	104
1276.27	98
1281.82	120
1287.37	156
1292.91	180
1298.45	334
1303.98	738
1309.5	510
1315.02	258
1320.53	188
1326.04	184
1331.54	162
1337.04	152
1342.53	144
1348.02	160
1353.5	154
1358.98	142
1364.45	154
1369.91	162
1375.37	338
1380.82	428
1386.27	264
1391.71	162
1397.15	134
1402.58	132
1408.01	140
1413.43	128
1418.85	144
1424.26	174
1429.66	186
1435.06	204
1440.46	216
1445.85	188
1451.23	164
1456.61	158
1461.98	160
1467.35	152
1472.71	140
1478.07	146
1483.42	132
1488.77	110
1494.11	114
1499.45	100
1504.78	108
1510.11	116
1515.43	122
1520.74	112
1526.05	116
1531.36	108
1536.66	108
1541.95	104
1547.24	104
1552.52	110
1557.8	106
1563.08	118
1568.35	120
1573.61	126
1578.87	134
1584.12	170
1589.37	238
1594.61	316
1599.85	448
1605.08	440
1610.31	368
1615.53	242
1620.75	174
1625.96	118
1631.17	110
1636.37	92
1641.57	84
1646.76	86
1651.95	72
1657.13	82
1662.31	78
1667.48	76
1672.65	68
1677.81	80
1682.97	76
1688.12	80
1693.27	78
1698.41	74
1702.26	76