File: Jesse_Dataset_v2/Pure Raman/Polypropylene oxide/785nm/ps-ppo-6jan25-0,0000-map2_Y09_X06.txt
204.377	350
211.048	324
217.712	296
224.369	440
231.019	808
237.661	834
244.297	578
250.924	362
257.546	254
264.16	200
270.766	174
277.365	170
283.958	210
290.543	332
297.121	398
303.693	304
310.256	236
316.813	216
323.362	218
329.905	236
336.441	232
342.969	202
349.491	190
356.006	202
362.513	168
369.014	182
375.508	174
381.994	136
388.473	122
394.947	118
401.412	126
407.871	146
414.323	194
420.768	154
427.206	108
433.637	92
440.062	82
446.479	80
452.89	72
459.293	80
465.691	100
472.081	142
478.463	206
484.84	276
491.21	150
497.573	104
503.929	88
510.279	150
516.621	156
522.957	142
529.287	204
535.609	386
541.925	390
548.234	200
554.536	186
560.832	332
567.12	1290
573.403	1768
579.679	454
585.948	292
592.211	246
598.466	172
604.715	96
610.958	82
617.194	92
623.424	98
629.647	120
635.864	142
642.074	132
648.276	94
654.473	76
660.664	72
666.847	62
673.025	60
679.195	62
685.36	60
691.517	60
697.669	54
703.814	64
709.953	82
716.085	86
722.21	70
728.33	72
734.443	72
740.549	88
746.65	132
752.743	104
758.831	84
764.912	64
770.986	68
777.055	68
783.117	72
789.173	66
795.222	66
801.265	62
807.302	68
813.333	76
819.357	72
825.376	124
831.387	454
837.392	210
843.392	98
849.386	96
855.372	86
861.353	72
867.328	70
873.296	64
879.258	58
885.214	58
891.164	58
897.108	56
903.046	54
908.977	54
914.903	52
920.822	62
926.735	56
932.643	60
938.543	68
944.439	90
950.328	134
956.21	274
962.088	342
967.958	206
973.824	116
979.682	74
985.534	62
991.382	72
997.222	58
1003.06	60
1008.89	62
1014.71	64
1020.53	70
1026.34	84
1032.14	98
1037.94	90
1043.73	80
1049.52	72
1055.3	62
1061.08	64
1066.85	58
1072.61	54
1078.37	62
1084.12	58
1089.87	64
1095.61	76
1101.34	76
1107.07	138
1112.8	316
1118.51	148
1124.22	100
1129.93	86
1135.63	86
1141.32	86
1147.01	76
1152.69	66
1158.37	72
1164.04	88
1169.71	76
1175.37	94
1181.02	140
1186.67	226
1192.31	154
1197.95	142
1203.58	162
1209.2	120
1214.82	82
1220.44	88
1226.05	92
1231.65	112
1237.25	90
1242.84	90
1248.42	84
1254	88
1259.58	80
1265.15	84
1270.71	100
1276.27	102
1281.82	124
1287.37	148
1292.91	172
1298.45	316
1303.98	716
1309.5	454
1315.02	238
1320.53	174
1326.04	164
1331.54	156
1337.04	144
1342.53	148
1348.02	150
1353.5	162
1358.98	136
1364.45	144
1369.91	158
1375.37	312
1380.82	362
1386.27	244
1391.71	150
1397.15	128
1402.58	134
1408.01	126
1413.43	126
1418.85	150
1424.26	172
1429.66	166
1435.06	182
1440.46	210
1445.85	184
1451.23	150
1456.61	154
1461.98	146
1467.35	120
1472.71	142
1478.07	140
1483.42	114
1488.77	120
1494.11	106
1499.45	104
1504.78	96
1510.11	104
1515.43	104
1520.74	102
1526.05	100
1531.36	104
1536.66	100
1541.95	102
1547.24	106
1552.52	106
1557.8	96
1563.08	104
1568.35	110
1573.61	106
1578.87	138
1584.12	158
1589.37	226
1594.61	308
1599.85	422
1605.08	404
1610.31	306
1615.53	214
1620.75	152
1625.96	118
1631.17	102
1636.37	96
1641.57	88
1646.76	74
1651.95	86
1657.13	70
1662.31	82
1667.48	76
1672.65	72
1677.81	60
1682.97	78
1688.12	72
1693.27	74
1698.41	70
1702.26	70