File: Jesse_Dataset_v2/Pure Raman/Polypropylene oxide/785nm/ps-ppo-6jan25-0,0000-map2_Y02_X10.txt
204.377	390
211.048	340
217.712	344
224.369	482
231.019	926
237.661	930
244.297	628
250.924	386
257.546	260
264.16	196
270.766	176
277.365	196
283.958	234
290.543	360
297.121	436
303.693	342
310.256	264
316.813	220
323.362	244
329.905	252
336.441	258
342.969	232
349.491	202
356.006	210
362.513	178
369.014	196
375.508	194
381.994	148
388.473	134
394.947	122
401.412	130
407.871	160
414.323	230
420.768	164
427.206	118
433.637	98
440.062	84
446.479	80
452.89	78
459.293	86
465.691	106
472.081	156
478.463	230
484.84	304
491.21	168
497.573	124
503.929	102
510.279	156
516.621	160
522.957	162
529.287	228
535.609	400
541.925	412
548.234	226
554.536	216
560.832	398
567.12	1468
573.403	1974
579.679	514
585.948	332
592.211	272
598.466	222
604.715	126
610.958	86
617.194	94
623.424	110
629.647	134
635.864	152
642.074	132
648.276	102
654.473	92
660.664	68
666.847	80
673.025	66
679.195	66
685.36	62
691.517	62
697.669	58
703.814	64
709.953	84
716.085	94
722.21	84
728.33	78
734.443	82
740.549	88
746.65	142
752.743	116
758.831	92
764.912	68
770.986	68
777.055	82
783.117	72
789.173	74
795.222	76
801.265	70
807.302	66
813.333	78
819.357	84
825.376	132
831.387	496
837.392	256
843.392	98
849.386	104
855.372	88
861.353	82
867.328	74
873.296	74
879.258	62
885.214	62
891.164	58
897.108	58
903.046	56
908.977	56
914.903	58
920.822	58
926.735	62
932.643	62
938.543	74
944.439	102
950.328	154
956.21	312
962.088	346
967.958	222
973.824	128
979.682	84
985.534	80
991.382	74
997.222	66
1003.06	60
1008.89	58
1014.71	66
1020.53	78
1026.34	86
1032.14	104
1037.94	102
1043.73	86
1049.52	68
1055.3	62
1061.08	54
1066.85	56
1072.61	58
1078.37	62
1084.12	66
1089.87	62
1095.61	68
1101.34	78
1107.07	152
1112.8	364
1118.51	160
1124.22	100
1129.93	88
1135.63	84
1141.32	92
1147.01	78
1152.69	76
1158.37	86
1164.04	98
1169.71	80
1175.37	98
1181.02	152
1186.67	250
1192.31	164
1197.95	148
1203.58	164
1209.2	132
1214.82	98
1220.44	96
1226.05	112
1231.65	130
1237.25	96
1242.84	88
1248.42	88
1254	86
1259.58	92
1265.15	98
1270.71	100
1276.27	108
1281.82	134
1287.37	156
1292.91	190
1298.45	340
1303.98	780
1309.5	540
1315.02	260
1320.53	206
1326.04	170
1331.54	170
1337.04	150
1342.53	144
1348.02	162
1353.5	168
1358.98	148
1364.45	152
1369.91	186
1375.37	346
1380.82	426
1386.27	262
1391.71	154
1397.15	144
1402.58	134
1408.01	128
1413.43	132
1418.85	156
1424.26	176
1429.66	190
1435.06	206
1440.46	216
1445.85	188
1451.23	188
1456.61	160
1461.98	166
1467.35	154
1472.71	146
1478.07	138
1483.42	142
1488.77	134
1494.11	130
1499.45	120
1504.78	122
1510.11	120
1515.43	118
1520.74	112
1526.05	124
1531.36	112
1536.66	106
1541.95	110
1547.24	114
1552.52	116
1557.8	116
1563.08	100
1568.35	108
1573.61	122
1578.87	154
1584.12	180
1589.37	232
1594.61	344
1599.85	468
1605.08	446
1610.31	352
1615.53	250
1620.75	160
1625.96	134
1631.17	108
1636.37	106
1641.57	94
1646.76	86
1651.95	86
1657.13	86
1662.31	86
1667.48	78
1672.65	86
1677.81	78
1682.97	84
1688.12	84
1693.27	92
1698.41	82
1702.26	80