File: Jesse_Dataset_v2/Pure Raman/Polypropylene oxide/785nm/ps-ppo-6jan25-0,0000-map2_Y08_X06.txt
204.377	358
211.048	318
217.712	322
224.369	454
231.019	830
237.661	880
244.297	590
250.924	398
257.546	240
264.16	198
270.766	176
277.365	176
283.958	230
290.543	340
297.121	414
303.693	306
310.256	246
316.813	232
323.362	218
329.905	252
336.441	236
342.969	208
349.491	212
356.006	206
362.513	188
369.014	190
375.508	170
381.994	144
388.473	130
394.947	118
401.412	120
407.871	156
414.323	210
420.768	152
427.206	124
433.637	94
440.062	74
446.479	84
452.89	72
459.293	94
465.691	98
472.081	144
478.463	210
484.84	276
491.21	160
497.573	114
503.929	92
510.279	152
516.621	158
522.957	150
529.287	224
535.609	386
541.925	394
548.234	208
554.536	184
560.832	396
567.12	1380
573.403	1874
579.679	438
585.948	292
592.211	242
598.466	206
604.715	116
610.958	96
617.194	92
623.424	102
629.647	132
635.864	152
642.074	106
648.276	86
654.473	80
660.664	72
666.847	68
673.025	62
679.195	60
685.36	68
691.517	64
697.669	60
703.814	58
709.953	76
716.085	94
722.21	80
728.33	70
734.443	74
740.549	92
746.65	130
752.743	122
758.831	96
764.912	68
770.986	64
777.055	76
783.117	82
789.173	76
795.222	64
801.265	66
807.302	72
813.333	70
819.357	82
825.376	130
831.387	466
837.392	226
843.392	104
849.386	86
855.372	84
861.353	84
867.328	68
873.296	72
879.258	58
885.214	62
891.164	56
897.108	54
903.046	58
908.977	58
914.903	58
920.822	56
926.735	58
932.643	64
938.543	78
944.439	90
950.328	132
956.21	280
962.088	348
967.958	226
973.824	134
979.682	80
985.534	70
991.382	76
997.222	56
1003.06	62
1008.89	62
1014.71	66
1020.53	82
1026.34	86
1032.14	94
1037.94	82
1043.73	84
1049.52	72
1055.3	68
1061.08	64
1066.85	58
1072.61	64
1078.37	68
1084.12	64
1089.87	60
1095.61	72
1101.34	78
1107.07	130
1112.8	312
1118.51	134
1124.22	102
1129.93	84
1135.63	80
1141.32	86
1147.01	72
1152.69	74
1158.37	82
1164.04	84
1169.71	90
1175.37	98
1181.02	138
1186.67	228
1192.31	156
1197.95	152
1203.58	176
1209.2	122
1214.82	90
1220.44	80
1226.05	110
1231.65	122
1237.25	92
1242.84	90
1248.42	82
1254	84
1259.58	90
1265.15	90
1270.71	88
1276.27	102
1281.82	130
1287.37	146
1292.91	162
1298.45	334
1303.98	722
1309.5	472
1315.02	248
1320.53	174
1326.04	178
1331.54	164
1337.04	138
1342.53	136
1348.02	160
1353.5	156
1358.98	136
1364.45	148
1369.91	170
1375.37	318
1380.82	386
1386.27	264
1391.71	148
1397.15	128
1402.58	130
1408.01	138
1413.43	142
1418.85	150
1424.26	172
1429.66	178
1435.06	186
1440.46	190
1445.85	172
1451.23	162
1456.61	158
1461.98	132
1467.35	144
1472.71	142
1478.07	132
1483.42	126
1488.77	120
1494.11	112
1499.45	120
1504.78	114
1510.11	114
1515.43	110
1520.74	108
1526.05	98
1531.36	100
1536.66	100
1541.95	100
1547.24	108
1552.52	102
1557.8	104
1563.08	108
1568.35	104
1573.61	110
1578.87	130
1584.12	164
1589.37	230
1594.61	308
1599.85	440
1605.08	432
1610.31	324
1615.53	244
1620.75	176
1625.96	120
1631.17	98
1636.37	92
1641.57	90
1646.76	84
1651.95	84
1657.13	86
1662.31	74
1667.48	78
1672.65	80
1677.81	78
1682.97	80
1688.12	82
1693.27	74
1698.41	82
1702.26	76