File: Jesse_Dataset_v2/Pure Raman/Polypropylene oxide/785nm/ps-ppo-6jan25-0,0000-map2_Y10_X02.txt
204.377	282
211.048	268
217.712	258
224.369	366
231.019	670
237.661	682
244.297	492
250.924	318
257.546	204
264.16	160
270.766	148
277.365	148
283.958	186
290.543	268
297.121	326
303.693	260
310.256	206
316.813	184
323.362	176
329.905	210
336.441	192
342.969	156
349.491	140
356.006	182
362.513	150
369.014	158
375.508	138
381.994	126
388.473	116
394.947	110
401.412	112
407.871	126
414.323	176
420.768	130
427.206	96
433.637	86
440.062	80
446.479	72
452.89	76
459.293	72
465.691	92
472.081	122
478.463	170
484.84	234
491.21	128
497.573	96
503.929	80
510.279	130
516.621	136
522.957	120
529.287	166
535.609	314
541.925	310
548.234	176
554.536	166
560.832	306
567.12	1034
573.403	1374
579.679	378
585.948	252
592.211	194
598.466	158
604.715	96
610.958	74
617.194	76
623.424	90
629.647	116
635.864	120
642.074	112
648.276	78
654.473	62
660.664	68
666.847	64
673.025	56
679.195	62
685.36	50
691.517	54
697.669	54
703.814	56
709.953	68
716.085	86
722.21	70
728.33	72
734.443	74
740.549	76
746.65	110
752.743	102
758.831	80
764.912	54
770.986	56
777.055	60
783.117	62
789.173	58
795.222	54
801.265	58
807.302	72
813.333	68
819.357	68
825.376	104
831.387	368
837.392	184
843.392	84
849.386	80
855.372	68
861.353	62
867.328	62
873.296	52
879.258	56
885.214	50
891.164	50
897.108	60
903.046	50
908.977	50
914.903	48
920.822	56
926.735	56
932.643	60
938.543	50
944.439	78
950.328	122
956.21	228
962.088	272
967.958	174
973.824	100
979.682	74
985.534	60
991.382	62
997.222	60
1003.06	52
1008.89	52
1014.71	50
1020.53	68
1026.34	74
1032.14	68
1037.94	78
1043.73	72
1049.52	66
1055.3	60
1061.08	58
1066.85	52
1072.61	58
1078.37	62
1084.12	56
1089.87	54
1095.61	60
1101.34	62
1107.07	110
1112.8	252
1118.51	112
1124.22	82
1129.93	70
1135.63	56
1141.32	68
1147.01	72
1152.69	64
1158.37	72
1164.04	86
1169.71	64
1175.37	84
1181.02	106
1186.67	168
1192.31	134
1197.95	114
1203.58	134
1209.2	94
1214.82	68
1220.44	72
1226.05	98
1231.65	102
1237.25	84
1242.84	72
1248.42	74
1254	80
1259.58	78
1265.15	80
1270.71	82
1276.27	84
1281.82	104
1287.37	110
1292.91	154
1298.45	252
1303.98	540
1309.5	372
1315.02	188
1320.53	162
1326.04	138
1331.54	134
1337.04	124
1342.53	120
1348.02	124
1353.5	132
1358.98	128
1364.45	118
1369.91	126
1375.37	252
1380.82	296
1386.27	212
1391.71	136
1397.15	106
1402.58	108
1408.01	114
1413.43	128
1418.85	124
1424.26	146
1429.66	144
1435.06	160
1440.46	160
1445.85	144
1451.23	124
1456.61	124
1461.98	122
1467.35	106
1472.71	114
1478.07	112
1483.42	110
1488.77	96
1494.11	92
1499.45	98
1504.78	90
1510.11	90
1515.43	96
1520.74	92
1526.05	90
1531.36	88
1536.66	90
1541.95	92
1547.24	92
1552.52	78
1557.8	88
1563.08	90
1568.35	92
1573.61	96
1578.87	108
1584.12	132
1589.37	176
1594.61	250
1599.85	338
1605.08	336
1610.31	254
1615.53	180
1620.75	130
1625.96	102
1631.17	86
1636.37	76
1641.57	62
1646.76	74
1651.95	74
1657.13	72
1662.31	66
1667.48	66
1672.65	68
1677.81	68
1682.97	66
1688.12	58
1693.27	66
1698.41	70
1702.26	68