File: Jesse_Dataset_v2/Pure Raman/Polypropylene oxide/785nm/ps-ppo-6jan25-0,0000-map2_Y10_X08.txt
204.377	342
211.048	312
217.712	330
224.369	410
231.019	826
237.661	838
244.297	544
250.924	364
257.546	250
264.16	182
270.766	172
277.365	176
283.958	216
290.543	346
297.121	414
303.693	276
310.256	236
316.813	218
323.362	220
329.905	240
336.441	224
342.969	192
349.491	198
356.006	184
362.513	178
369.014	190
375.508	172
381.994	124
388.473	126
394.947	104
401.412	126
407.871	146
414.323	196
420.768	150
427.206	118
433.637	90
440.062	84
446.479	80
452.89	74
459.293	86
465.691	94
472.081	144
478.463	206
484.84	270
491.21	162
497.573	108
503.929	102
510.279	152
516.621	148
522.957	146
529.287	212
535.609	370
541.925	368
548.234	200
554.536	200
560.832	380
567.12	1364
573.403	1740
579.679	442
585.948	302
592.211	264
598.466	192
604.715	106
610.958	94
617.194	82
623.424	104
629.647	120
635.864	140
642.074	112
648.276	88
654.473	84
660.664	70
666.847	60
673.025	68
679.195	54
685.36	58
691.517	56
697.669	54
703.814	62
709.953	72
716.085	80
722.21	76
728.33	68
734.443	80
740.549	90
746.65	130
752.743	116
758.831	90
764.912	72
770.986	64
777.055	70
783.117	60
789.173	74
795.222	54
801.265	66
807.302	74
813.333	74
819.357	82
825.376	126
831.387	452
837.392	218
843.392	100
849.386	86
855.372	90
861.353	72
867.328	66
873.296	66
879.258	60
885.214	54
891.164	56
897.108	50
903.046	54
908.977	58
914.903	50
920.822	50
926.735	64
932.643	66
938.543	68
944.439	88
950.328	152
956.21	268
962.088	340
967.958	220
973.824	122
979.682	78
985.534	76
991.382	70
997.222	60
1003.06	62
1008.89	66
1014.71	74
1020.53	78
1026.34	78
1032.14	100
1037.94	96
1043.73	72
1049.52	80
1055.3	62
1061.08	70
1066.85	62
1072.61	66
1078.37	60
1084.12	64
1089.87	66
1095.61	64
1101.34	84
1107.07	128
1112.8	330
1118.51	140
1124.22	102
1129.93	88
1135.63	80
1141.32	78
1147.01	74
1152.69	68
1158.37	84
1164.04	92
1169.71	88
1175.37	100
1181.02	130
1186.67	220
1192.31	148
1197.95	152
1203.58	164
1209.2	112
1214.82	78
1220.44	80
1226.05	110
1231.65	124
1237.25	84
1242.84	80
1248.42	80
1254	80
1259.58	88
1265.15	86
1270.71	92
1276.27	104
1281.82	122
1287.37	136
1292.91	174
1298.45	328
1303.98	720
1309.5	450
1315.02	260
1320.53	188
1326.04	168
1331.54	156
1337.04	138
1342.53	132
1348.02	162
1353.5	156
1358.98	140
1364.45	138
1369.91	158
1375.37	328
1380.82	382
1386.27	228
1391.71	140
1397.15	126
1402.58	130
1408.01	124
1413.43	132
1418.85	154
1424.26	166
1429.66	176
1435.06	190
1440.46	198
1445.85	172
1451.23	166
1456.61	152
1461.98	152
1467.35	134
1472.71	134
1478.07	136
1483.42	128
1488.77	118
1494.11	120
1499.45	94
1504.78	102
1510.11	96
1515.43	106
1520.74	104
1526.05	98
1531.36	96
1536.66	98
1541.95	102
1547.24	94
1552.52	102
1557.8	112
1563.08	98
1568.35	104
1573.61	126
1578.87	134
1584.12	158
1589.37	220
1594.61	314
1599.85	432
1605.08	426
1610.31	334
1615.53	234
1620.75	160
1625.96	120
1631.17	90
1636.37	86
1641.57	86
1646.76	88
1651.95	82
1657.13	76
1662.31	72
1667.48	76
1672.65	78
1677.81	72
1682.97	72
1688.12	76
1693.27	72
1698.41	78
1702.26	74