File: Jesse_Dataset_v2/Pure Raman/Polypropylene oxide/785nm/ps-ppo-6jan25-0,0000-map2_Y05_X02.txt
204.377	398
211.048	356
217.712	334
224.369	470
231.019	926
237.661	932
244.297	642
250.924	394
257.546	266
264.16	198
270.766	180
277.365	186
283.958	240
290.543	362
297.121	434
303.693	338
310.256	260
316.813	252
323.362	236
329.905	252
336.441	252
342.969	216
349.491	196
356.006	224
362.513	180
369.014	204
375.508	198
381.994	146
388.473	128
394.947	130
401.412	132
407.871	148
414.323	220
420.768	178
427.206	120
433.637	104
440.062	78
446.479	74
452.89	82
459.293	84
465.691	106
472.081	160
478.463	238
484.84	296
491.21	180
497.573	108
503.929	110
510.279	162
516.621	158
522.957	168
529.287	216
535.609	418
541.925	422
548.234	198
554.536	210
560.832	398
567.12	1468
573.403	2000
579.679	476
585.948	334
592.211	288
598.466	208
604.715	118
610.958	96
617.194	88
623.424	112
629.647	142
635.864	162
642.074	124
648.276	98
654.473	84
660.664	70
666.847	66
673.025	60
679.195	58
685.36	68
691.517	60
697.669	58
703.814	72
709.953	74
716.085	98
722.21	78
728.33	66
734.443	76
740.549	90
746.65	140
752.743	124
758.831	94
764.912	68
770.986	72
777.055	78
783.117	76
789.173	70
795.222	70
801.265	68
807.302	74
813.333	74
819.357	78
825.376	130
831.387	498
837.392	252
843.392	104
849.386	94
855.372	86
861.353	78
867.328	74
873.296	60
879.258	64
885.214	66
891.164	58
897.108	58
903.046	60
908.977	52
914.903	60
920.822	54
926.735	58
932.643	70
938.543	72
944.439	94
950.328	148
956.21	308
962.088	358
967.958	224
973.824	126
979.682	84
985.534	76
991.382	78
997.222	64
1003.06	64
1008.89	64
1014.71	62
1020.53	76
1026.34	90
1032.14	104
1037.94	96
1043.73	84
1049.52	72
1055.3	66
1061.08	62
1066.85	66
1072.61	66
1078.37	60
1084.12	62
1089.87	62
1095.61	68
1101.34	72
1107.07	150
1112.8	352
1118.51	150
1124.22	104
1129.93	84
1135.63	86
1141.32	94
1147.01	72
1152.69	84
1158.37	84
1164.04	86
1169.71	90
1175.37	106
1181.02	140
1186.67	256
1192.31	188
1197.95	162
1203.58	174
1209.2	134
1214.82	102
1220.44	88
1226.05	122
1231.65	114
1237.25	90
1242.84	92
1248.42	82
1254	96
1259.58	98
1265.15	84
1270.71	104
1276.27	98
1281.82	124
1287.37	148
1292.91	206
1298.45	352
1303.98	770
1309.5	512
1315.02	274
1320.53	198
1326.04	194
1331.54	168
1337.04	156
1342.53	140
1348.02	162
1353.5	168
1358.98	150
1364.45	158
1369.91	178
1375.37	352
1380.82	432
1386.27	266
1391.71	158
1397.15	160
1402.58	138
1408.01	134
1413.43	152
1418.85	170
1424.26	196
1429.66	192
1435.06	210
1440.46	214
1445.85	194
1451.23	174
1456.61	150
1461.98	160
1467.35	154
1472.71	148
1478.07	150
1483.42	146
1488.77	122
1494.11	124
1499.45	120
1504.78	118
1510.11	116
1515.43	104
1520.74	108
1526.05	102
1531.36	110
1536.66	116
1541.95	100
1547.24	112
1552.52	106
1557.8	110
1563.08	116
1568.35	118
1573.61	126
1578.87	148
1584.12	178
1589.37	224
1594.61	348
1599.85	450
1605.08	448
1610.31	360
1615.53	254
1620.75	174
1625.96	138
1631.17	108
1636.37	102
1641.57	96
1646.76	86
1651.95	88
1657.13	88
1662.31	86
1667.48	74
1672.65	78
1677.81	80
1682.97	84
1688.12	82
1693.27	90
1698.41	84
1702.26	76