File: Jesse_Dataset_v2/Pure Raman/Polypropylene oxide/785nm/ps-ppo-6jan25-0,0000-map2_Y07_X03.txt
204.377	356
211.048	328
217.712	308
224.369	452
231.019	864
237.661	866
244.297	586
250.924	380
257.546	254
264.16	188
270.766	180
277.365	176
283.958	214
290.543	336
297.121	412
303.693	320
310.256	260
316.813	212
323.362	218
329.905	226
336.441	246
342.969	198
349.491	190
356.006	210
362.513	184
369.014	184
375.508	174
381.994	160
388.473	136
394.947	118
401.412	116
407.871	160
414.323	206
420.768	170
427.206	116
433.637	100
440.062	82
446.479	66
452.89	84
459.293	78
465.691	96
472.081	154
478.463	208
484.84	278
491.21	164
497.573	106
503.929	104
510.279	154
516.621	156
522.957	144
529.287	220
535.609	386
541.925	390
548.234	202
554.536	208
560.832	388
567.12	1368
573.403	1864
579.679	492
585.948	306
592.211	260
598.466	208
604.715	116
610.958	88
617.194	88
623.424	102
629.647	122
635.864	134
642.074	126
648.276	94
654.473	82
660.664	66
666.847	68
673.025	56
679.195	56
685.36	64
691.517	52
697.669	58
703.814	66
709.953	76
716.085	104
722.21	68
728.33	72
734.443	74
740.549	94
746.65	132
752.743	116
758.831	90
764.912	68
770.986	70
777.055	72
783.117	76
789.173	68
795.222	72
801.265	70
807.302	60
813.333	72
819.357	78
825.376	132
831.387	458
837.392	236
843.392	96
849.386	94
855.372	84
861.353	84
867.328	76
873.296	64
879.258	62
885.214	62
891.164	54
897.108	64
903.046	50
908.977	60
914.903	52
920.822	58
926.735	58
932.643	62
938.543	64
944.439	88
950.328	140
956.21	294
962.088	348
967.958	214
973.824	134
979.682	80
985.534	74
991.382	76
997.222	60
1003.06	66
1008.89	66
1014.71	66
1020.53	76
1026.34	82
1032.14	94
1037.94	94
1043.73	72
1049.52	72
1055.3	64
1061.08	66
1066.85	62
1072.61	70
1078.37	60
1084.12	62
1089.87	62
1095.61	70
1101.34	84
1107.07	134
1112.8	342
1118.51	156
1124.22	100
1129.93	74
1135.63	88
1141.32	88
1147.01	82
1152.69	72
1158.37	84
1164.04	90
1169.71	76
1175.37	94
1181.02	140
1186.67	240
1192.31	160
1197.95	144
1203.58	168
1209.2	126
1214.82	92
1220.44	88
1226.05	118
1231.65	124
1237.25	98
1242.84	80
1248.42	84
1254	94
1259.58	88
1265.15	100
1270.71	94
1276.27	110
1281.82	122
1287.37	134
1292.91	174
1298.45	314
1303.98	690
1309.5	476
1315.02	248
1320.53	194
1326.04	168
1331.54	154
1337.04	144
1342.53	140
1348.02	162
1353.5	162
1358.98	146
1364.45	156
1369.91	178
1375.37	338
1380.82	404
1386.27	244
1391.71	164
1397.15	136
1402.58	120
1408.01	136
1413.43	140
1418.85	154
1424.26	164
1429.66	182
1435.06	194
1440.46	200
1445.85	182
1451.23	158
1456.61	158
1461.98	136
1467.35	140
1472.71	148
1478.07	146
1483.42	136
1488.77	110
1494.11	114
1499.45	114
1504.78	106
1510.11	116
1515.43	118
1520.74	112
1526.05	106
1531.36	106
1536.66	102
1541.95	114
1547.24	112
1552.52	114
1557.8	112
1563.08	112
1568.35	124
1573.61	120
1578.87	134
1584.12	172
1589.37	228
1594.61	334
1599.85	444
1605.08	428
1610.31	338
1615.53	236
1620.75	158
1625.96	126
1631.17	110
1636.37	96
1641.57	82
1646.76	84
1651.95	80
1657.13	66
1662.31	80
1667.48	84
1672.65	78
1677.81	76
1682.97	74
1688.12	72
1693.27	86
1698.41	82
1702.26	64