File: Jesse_Dataset_v2/Pure Raman/Polypropylene oxide/785nm/ps-ppo-6jan25-0,0000-map2_Y06_X04.txt
204.377	366
211.048	298
217.712	316
224.369	442
231.019	860
237.661	830
244.297	598
250.924	370
257.546	260
264.16	188
270.766	174
277.365	184
283.958	220
290.543	376
297.121	408
303.693	296
310.256	240
316.813	220
323.362	222
329.905	222
336.441	230
342.969	214
349.491	198
356.006	200
362.513	182
369.014	186
375.508	198
381.994	142
388.473	138
394.947	130
401.412	128
407.871	148
414.323	196
420.768	160
427.206	122
433.637	88
440.062	74
446.479	70
452.89	84
459.293	74
465.691	94
472.081	132
478.463	204
484.84	268
491.21	168
497.573	106
503.929	94
510.279	164
516.621	158
522.957	150
529.287	210
535.609	374
541.925	368
548.234	206
554.536	186
560.832	368
567.12	1328
573.403	1838
579.679	486
585.948	314
592.211	244
598.466	194
604.715	104
610.958	88
617.194	82
623.424	108
629.647	124
635.864	144
642.074	124
648.276	98
654.473	84
660.664	62
666.847	60
673.025	58
679.195	54
685.36	70
691.517	54
697.669	60
703.814	60
709.953	66
716.085	96
722.21	80
728.33	72
734.443	76
740.549	86
746.65	138
752.743	108
758.831	92
764.912	68
770.986	68
777.055	70
783.117	76
789.173	72
795.222	64
801.265	64
807.302	72
813.333	76
819.357	86
825.376	130
831.387	482
837.392	236
843.392	98
849.386	90
855.372	80
861.353	74
867.328	68
873.296	54
879.258	52
885.214	58
891.164	54
897.108	52
903.046	56
908.977	60
914.903	56
920.822	52
926.735	60
932.643	60
938.543	74
944.439	88
950.328	140
956.21	286
962.088	330
967.958	214
973.824	126
979.682	88
985.534	76
991.382	68
997.222	72
1003.06	64
1008.89	64
1014.71	62
1020.53	74
1026.34	80
1032.14	88
1037.94	86
1043.73	80
1049.52	66
1055.3	64
1061.08	60
1066.85	56
1072.61	60
1078.37	60
1084.12	64
1089.87	64
1095.61	68
1101.34	78
1107.07	128
1112.8	322
1118.51	154
1124.22	102
1129.93	86
1135.63	70
1141.32	80
1147.01	76
1152.69	72
1158.37	74
1164.04	82
1169.71	84
1175.37	88
1181.02	136
1186.67	230
1192.31	154
1197.95	150
1203.58	154
1209.2	116
1214.82	90
1220.44	86
1226.05	110
1231.65	134
1237.25	92
1242.84	82
1248.42	82
1254	78
1259.58	84
1265.15	90
1270.71	94
1276.27	98
1281.82	120
1287.37	130
1292.91	180
1298.45	306
1303.98	704
1309.5	468
1315.02	254
1320.53	190
1326.04	178
1331.54	160
1337.04	156
1342.53	138
1348.02	162
1353.5	152
1358.98	140
1364.45	148
1369.91	174
1375.37	312
1380.82	390
1386.27	272
1391.71	154
1397.15	130
1402.58	118
1408.01	118
1413.43	138
1418.85	150
1424.26	180
1429.66	170
1435.06	196
1440.46	204
1445.85	180
1451.23	160
1456.61	164
1461.98	144
1467.35	144
1472.71	144
1478.07	146
1483.42	118
1488.77	116
1494.11	110
1499.45	108
1504.78	114
1510.11	106
1515.43	112
1520.74	106
1526.05	112
1531.36	106
1536.66	100
1541.95	108
1547.24	106
1552.52	106
1557.8	110
1563.08	112
1568.35	108
1573.61	120
1578.87	134
1584.12	182
1589.37	222
1594.61	306
1599.85	438
1605.08	438
1610.31	328
1615.53	236
1620.75	164
1625.96	120
1631.17	104
1636.37	90
1641.57	92
1646.76	78
1651.95	84
1657.13	84
1662.31	74
1667.48	80
1672.65	72
1677.81	74
1682.97	74
1688.12	76
1693.27	86
1698.41	70
1702.26	74