File: Jesse_Dataset_v2/Pure Raman/Polypropylene oxide/785nm/ps-ppo-6jan25-0,0000-map2_Y09_X07.txt
204.377	340
211.048	306
217.712	304
224.369	444
231.019	832
237.661	806
244.297	546
250.924	372
257.546	228
264.16	178
270.766	164
277.365	168
283.958	224
290.543	356
297.121	396
303.693	308
310.256	240
316.813	224
323.362	212
329.905	224
336.441	236
342.969	204
349.491	176
356.006	196
362.513	184
369.014	176
375.508	174
381.994	136
388.473	120
394.947	116
401.412	118
407.871	140
414.323	194
420.768	164
427.206	106
433.637	94
440.062	80
446.479	80
452.89	74
459.293	70
465.691	96
472.081	138
478.463	218
484.84	266
491.21	146
497.573	98
503.929	98
510.279	138
516.621	164
522.957	140
529.287	228
535.609	388
541.925	384
548.234	204
554.536	182
560.832	382
567.12	1312
573.403	1716
579.679	434
585.948	310
592.211	248
598.466	190
604.715	96
610.958	86
617.194	80
623.424	104
629.647	118
635.864	144
642.074	124
648.276	92
654.473	74
660.664	66
666.847	64
673.025	64
679.195	60
685.36	58
691.517	56
697.669	54
703.814	52
709.953	74
716.085	92
722.21	76
728.33	72
734.443	72
740.549	82
746.65	144
752.743	106
758.831	80
764.912	70
770.986	66
777.055	76
783.117	74
789.173	74
795.222	62
801.265	60
807.302	76
813.333	64
819.357	80
825.376	120
831.387	458
837.392	220
843.392	96
849.386	92
855.372	84
861.353	72
867.328	68
873.296	56
879.258	62
885.214	52
891.164	56
897.108	48
903.046	54
908.977	54
914.903	54
920.822	58
926.735	56
932.643	60
938.543	66
944.439	86
950.328	144
956.21	274
962.088	318
967.958	208
973.824	118
979.682	84
985.534	64
991.382	72
997.222	58
1003.06	64
1008.89	58
1014.71	64
1020.53	76
1026.34	86
1032.14	84
1037.94	90
1043.73	76
1049.52	70
1055.3	66
1061.08	60
1066.85	58
1072.61	64
1078.37	58
1084.12	58
1089.87	60
1095.61	70
1101.34	74
1107.07	128
1112.8	330
1118.51	140
1124.22	90
1129.93	72
1135.63	82
1141.32	78
1147.01	76
1152.69	74
1158.37	74
1164.04	80
1169.71	72
1175.37	94
1181.02	132
1186.67	202
1192.31	152
1197.95	150
1203.58	162
1209.2	122
1214.82	94
1220.44	88
1226.05	106
1231.65	114
1237.25	92
1242.84	82
1248.42	82
1254	86
1259.58	88
1265.15	86
1270.71	86
1276.27	92
1281.82	132
1287.37	138
1292.91	162
1298.45	326
1303.98	664
1309.5	470
1315.02	244
1320.53	172
1326.04	168
1331.54	154
1337.04	134
1342.53	130
1348.02	142
1353.5	138
1358.98	126
1364.45	140
1369.91	162
1375.37	322
1380.82	368
1386.27	244
1391.71	138
1397.15	130
1402.58	128
1408.01	132
1413.43	118
1418.85	148
1424.26	166
1429.66	180
1435.06	176
1440.46	182
1445.85	180
1451.23	162
1456.61	144
1461.98	140
1467.35	136
1472.71	136
1478.07	128
1483.42	118
1488.77	112
1494.11	108
1499.45	102
1504.78	108
1510.11	106
1515.43	96
1520.74	110
1526.05	96
1531.36	98
1536.66	110
1541.95	108
1547.24	98
1552.52	104
1557.8	90
1563.08	100
1568.35	116
1573.61	120
1578.87	142
1584.12	162
1589.37	216
1594.61	300
1599.85	412
1605.08	420
1610.31	326
1615.53	228
1620.75	142
1625.96	122
1631.17	90
1636.37	92
1641.57	86
1646.76	78
1651.95	80
1657.13	78
1662.31	80
1667.48	72
1672.65	78
1677.81	74
1682.97	72
1688.12	68
1693.27	74
1698.41	82
1702.26	72