File: Jesse_Dataset_v2/Pure Raman/Polypropylene oxide/785nm/ps-ppo-6jan25-0,0000-map2_Y07_X08.txt
204.377	356
211.048	330
217.712	330
224.369	474
231.019	884
237.661	894
244.297	604
250.924	406
257.546	268
264.16	192
270.766	190
277.365	190
283.958	238
290.543	340
297.121	438
303.693	312
310.256	244
316.813	224
323.362	216
329.905	222
336.441	246
342.969	212
349.491	202
356.006	212
362.513	196
369.014	190
375.508	186
381.994	138
388.473	136
394.947	118
401.412	126
407.871	160
414.323	208
420.768	156
427.206	118
433.637	102
440.062	76
446.479	76
452.89	76
459.293	74
465.691	94
472.081	154
478.463	202
484.84	276
491.21	176
497.573	106
503.929	100
510.279	172
516.621	170
522.957	150
529.287	220
535.609	408
541.925	418
548.234	220
554.536	204
560.832	380
567.12	1410
573.403	1938
579.679	464
585.948	310
592.211	252
598.466	198
604.715	118
610.958	94
617.194	90
623.424	110
629.647	130
635.864	152
642.074	112
648.276	106
654.473	90
660.664	72
666.847	58
673.025	56
679.195	58
685.36	58
691.517	62
697.669	56
703.814	68
709.953	80
716.085	98
722.21	70
728.33	74
734.443	74
740.549	84
746.65	130
752.743	112
758.831	88
764.912	62
770.986	74
777.055	70
783.117	70
789.173	68
795.222	58
801.265	62
807.302	70
813.333	78
819.357	82
825.376	128
831.387	478
837.392	252
843.392	98
849.386	98
855.372	80
861.353	74
867.328	70
873.296	56
879.258	62
885.214	64
891.164	48
897.108	50
903.046	56
908.977	54
914.903	56
920.822	60
926.735	60
932.643	66
938.543	72
944.439	98
950.328	154
956.21	286
962.088	348
967.958	212
973.824	126
979.682	84
985.534	70
991.382	74
997.222	60
1003.06	54
1008.89	62
1014.71	60
1020.53	74
1026.34	82
1032.14	88
1037.94	88
1043.73	82
1049.52	66
1055.3	60
1061.08	66
1066.85	62
1072.61	64
1078.37	60
1084.12	64
1089.87	64
1095.61	72
1101.34	70
1107.07	146
1112.8	326
1118.51	148
1124.22	100
1129.93	90
1135.63	84
1141.32	86
1147.01	70
1152.69	78
1158.37	84
1164.04	86
1169.71	82
1175.37	92
1181.02	138
1186.67	238
1192.31	174
1197.95	148
1203.58	176
1209.2	128
1214.82	90
1220.44	84
1226.05	98
1231.65	128
1237.25	88
1242.84	90
1248.42	78
1254	80
1259.58	84
1265.15	98
1270.71	86
1276.27	106
1281.82	126
1287.37	146
1292.91	188
1298.45	354
1303.98	718
1309.5	518
1315.02	260
1320.53	188
1326.04	182
1331.54	174
1337.04	138
1342.53	144
1348.02	158
1353.5	158
1358.98	148
1364.45	140
1369.91	168
1375.37	336
1380.82	402
1386.27	264
1391.71	156
1397.15	138
1402.58	138
1408.01	120
1413.43	156
1418.85	156
1424.26	172
1429.66	174
1435.06	184
1440.46	204
1445.85	182
1451.23	160
1456.61	166
1461.98	154
1467.35	148
1472.71	150
1478.07	138
1483.42	136
1488.77	118
1494.11	114
1499.45	120
1504.78	100
1510.11	100
1515.43	112
1520.74	96
1526.05	102
1531.36	106
1536.66	104
1541.95	110
1547.24	106
1552.52	104
1557.8	110
1563.08	94
1568.35	110
1573.61	116
1578.87	136
1584.12	164
1589.37	226
1594.61	336
1599.85	412
1605.08	428
1610.31	346
1615.53	238
1620.75	162
1625.96	128
1631.17	112
1636.37	96
1641.57	88
1646.76	96
1651.95	74
1657.13	82
1662.31	84
1667.48	74
1672.65	78
1677.81	72
1682.97	72
1688.12	84
1693.27	78
1698.41	80
1702.26	64