File: Jesse_Dataset_v2/Pure Raman/Polypropylene oxide/785nm/ps-ppo-6jan25-0,0000-map2_Y03_X06.txt
204.377	362
211.048	322
217.712	356
224.369	474
231.019	860
237.661	892
244.297	628
250.924	410
257.546	266
264.16	194
270.766	182
277.365	182
283.958	242
290.543	364
297.121	418
303.693	314
310.256	262
316.813	234
323.362	224
329.905	252
336.441	264
342.969	210
349.491	202
356.006	198
362.513	178
369.014	192
375.508	180
381.994	156
388.473	132
394.947	126
401.412	122
407.871	152
414.323	198
420.768	160
427.206	114
433.637	82
440.062	84
446.479	80
452.89	72
459.293	82
465.691	102
472.081	156
478.463	226
484.84	292
491.21	176
497.573	120
503.929	98
510.279	164
516.621	160
522.957	142
529.287	224
535.609	412
541.925	380
548.234	216
554.536	206
560.832	394
567.12	1398
573.403	1902
579.679	484
585.948	320
592.211	264
598.466	214
604.715	118
610.958	94
617.194	100
623.424	102
629.647	138
635.864	146
642.074	134
648.276	110
654.473	78
660.664	78
666.847	66
673.025	54
679.195	60
685.36	60
691.517	58
697.669	60
703.814	64
709.953	80
716.085	98
722.21	74
728.33	76
734.443	82
740.549	84
746.65	132
752.743	122
758.831	102
764.912	70
770.986	76
777.055	76
783.117	72
789.173	70
795.222	62
801.265	62
807.302	78
813.333	70
819.357	76
825.376	128
831.387	468
837.392	242
843.392	104
849.386	94
855.372	96
861.353	76
867.328	70
873.296	68
879.258	50
885.214	60
891.164	58
897.108	58
903.046	58
908.977	56
914.903	54
920.822	62
926.735	62
932.643	68
938.543	70
944.439	94
950.328	136
956.21	294
962.088	378
967.958	236
973.824	138
979.682	82
985.534	72
991.382	74
997.222	66
1003.06	66
1008.89	58
1014.71	64
1020.53	82
1026.34	82
1032.14	94
1037.94	96
1043.73	84
1049.52	62
1055.3	62
1061.08	58
1066.85	66
1072.61	60
1078.37	62
1084.12	68
1089.87	64
1095.61	70
1101.34	78
1107.07	148
1112.8	344
1118.51	142
1124.22	96
1129.93	84
1135.63	74
1141.32	84
1147.01	68
1152.69	72
1158.37	82
1164.04	96
1169.71	80
1175.37	100
1181.02	142
1186.67	234
1192.31	154
1197.95	154
1203.58	160
1209.2	128
1214.82	92
1220.44	88
1226.05	112
1231.65	124
1237.25	94
1242.84	96
1248.42	86
1254	88
1259.58	86
1265.15	90
1270.71	92
1276.27	104
1281.82	120
1287.37	156
1292.91	188
1298.45	328
1303.98	748
1309.5	518
1315.02	252
1320.53	192
1326.04	180
1331.54	164
1337.04	144
1342.53	152
1348.02	162
1353.5	158
1358.98	148
1364.45	156
1369.91	170
1375.37	320
1380.82	406
1386.27	278
1391.71	154
1397.15	134
1402.58	116
1408.01	138
1413.43	138
1418.85	154
1424.26	170
1429.66	172
1435.06	210
1440.46	206
1445.85	202
1451.23	158
1456.61	148
1461.98	148
1467.35	142
1472.71	140
1478.07	142
1483.42	138
1488.77	118
1494.11	128
1499.45	114
1504.78	118
1510.11	108
1515.43	118
1520.74	104
1526.05	108
1531.36	110
1536.66	108
1541.95	106
1547.24	102
1552.52	114
1557.8	108
1563.08	112
1568.35	114
1573.61	124
1578.87	144
1584.12	164
1589.37	218
1594.61	336
1599.85	438
1605.08	432
1610.31	344
1615.53	256
1620.75	162
1625.96	124
1631.17	108
1636.37	102
1641.57	92
1646.76	82
1651.95	84
1657.13	80
1662.31	76
1667.48	78
1672.65	80
1677.81	76
1682.97	86
1688.12	78
1693.27	76
1698.41	82
1702.26	76