File: Jesse_Dataset_v2/Pure Raman/Polypropylene oxide/785nm/ps-ppo-6jan25-0,0000-map2_Y04_X05.txt
204.377	370
211.048	334
217.712	310
224.369	456
231.019	918
237.661	882
244.297	618
250.924	390
257.546	266
264.16	200
270.766	162
277.365	180
283.958	222
290.543	364
297.121	400
303.693	294
310.256	268
316.813	228
323.362	216
329.905	256
336.441	254
342.969	216
349.491	204
356.006	228
362.513	202
369.014	178
375.508	174
381.994	146
388.473	130
394.947	120
401.412	126
407.871	158
414.323	226
420.768	166
427.206	114
433.637	110
440.062	88
446.479	82
452.89	76
459.293	78
465.691	100
472.081	138
478.463	214
484.84	282
491.21	172
497.573	110
503.929	98
510.279	144
516.621	174
522.957	150
529.287	234
535.609	410
541.925	406
548.234	214
554.536	208
560.832	398
567.12	1400
573.403	1874
579.679	484
585.948	330
592.211	260
598.466	206
604.715	120
610.958	88
617.194	88
623.424	106
629.647	128
635.864	146
642.074	118
648.276	100
654.473	78
660.664	68
666.847	58
673.025	62
679.195	62
685.36	58
691.517	58
697.669	54
703.814	64
709.953	80
716.085	92
722.21	74
728.33	72
734.443	66
740.549	90
746.65	138
752.743	112
758.831	90
764.912	66
770.986	64
777.055	76
783.117	70
789.173	64
795.222	58
801.265	72
807.302	76
813.333	70
819.357	82
825.376	130
831.387	482
837.392	250
843.392	102
849.386	98
855.372	78
861.353	78
867.328	66
873.296	62
879.258	64
885.214	62
891.164	52
897.108	54
903.046	54
908.977	56
914.903	56
920.822	62
926.735	62
932.643	66
938.543	72
944.439	86
950.328	144
956.21	286
962.088	350
967.958	222
973.824	130
979.682	80
985.534	74
991.382	72
997.222	62
1003.06	56
1008.89	56
1014.71	62
1020.53	76
1026.34	82
1032.14	96
1037.94	94
1043.73	80
1049.52	68
1055.3	60
1061.08	66
1066.85	60
1072.61	64
1078.37	60
1084.12	58
1089.87	64
1095.61	66
1101.34	76
1107.07	142
1112.8	356
1118.51	146
1124.22	96
1129.93	74
1135.63	82
1141.32	78
1147.01	70
1152.69	70
1158.37	82
1164.04	86
1169.71	82
1175.37	100
1181.02	134
1186.67	226
1192.31	178
1197.95	146
1203.58	164
1209.2	124
1214.82	86
1220.44	86
1226.05	102
1231.65	126
1237.25	90
1242.84	86
1248.42	80
1254	86
1259.58	92
1265.15	88
1270.71	100
1276.27	106
1281.82	128
1287.37	156
1292.91	186
1298.45	334
1303.98	754
1309.5	506
1315.02	254
1320.53	190
1326.04	186
1331.54	178
1337.04	144
1342.53	142
1348.02	156
1353.5	160
1358.98	142
1364.45	146
1369.91	172
1375.37	336
1380.82	436
1386.27	280
1391.71	150
1397.15	146
1402.58	130
1408.01	126
1413.43	134
1418.85	136
1424.26	172
1429.66	182
1435.06	192
1440.46	202
1445.85	198
1451.23	158
1456.61	160
1461.98	154
1467.35	142
1472.71	142
1478.07	138
1483.42	122
1488.77	118
1494.11	108
1499.45	104
1504.78	110
1510.11	110
1515.43	108
1520.74	104
1526.05	114
1531.36	108
1536.66	98
1541.95	92
1547.24	102
1552.52	108
1557.8	102
1563.08	104
1568.35	116
1573.61	120
1578.87	134
1584.12	166
1589.37	236
1594.61	326
1599.85	464
1605.08	464
1610.31	356
1615.53	240
1620.75	168
1625.96	122
1631.17	110
1636.37	92
1641.57	84
1646.76	82
1651.95	82
1657.13	78
1662.31	80
1667.48	76
1672.65	82
1677.81	74
1682.97	78
1688.12	78
1693.27	72
1698.41	82
1702.26	72