File: Jesse_Dataset_v2/Pure Raman/Polypropylene oxide/785nm/ps-ppo-6jan25-0,0000-map2_Y08_X02.txt
204.377	368
211.048	318
217.712	324
224.369	444
231.019	834
237.661	874
244.297	620
250.924	404
257.546	262
264.16	210
270.766	186
277.365	168
283.958	218
290.543	340
297.121	418
303.693	318
310.256	236
316.813	228
323.362	204
329.905	252
336.441	254
342.969	208
349.491	198
356.006	194
362.513	184
369.014	198
375.508	192
381.994	156
388.473	132
394.947	118
401.412	128
407.871	140
414.323	216
420.768	152
427.206	116
433.637	104
440.062	80
446.479	84
452.89	78
459.293	74
465.691	102
472.081	146
478.463	196
484.84	276
491.21	166
497.573	114
503.929	88
510.279	154
516.621	158
522.957	156
529.287	236
535.609	360
541.925	394
548.234	204
554.536	202
560.832	374
567.12	1360
573.403	1876
579.679	476
585.948	302
592.211	262
598.466	188
604.715	122
610.958	86
617.194	86
623.424	106
629.647	138
635.864	132
642.074	120
648.276	100
654.473	88
660.664	68
666.847	62
673.025	64
679.195	60
685.36	66
691.517	62
697.669	60
703.814	64
709.953	86
716.085	90
722.21	82
728.33	70
734.443	74
740.549	80
746.65	140
752.743	110
758.831	86
764.912	70
770.986	68
777.055	78
783.117	80
789.173	70
795.222	58
801.265	60
807.302	80
813.333	76
819.357	86
825.376	132
831.387	438
837.392	238
843.392	104
849.386	90
855.372	82
861.353	80
867.328	58
873.296	66
879.258	60
885.214	50
891.164	58
897.108	50
903.046	66
908.977	54
914.903	60
920.822	54
926.735	60
932.643	62
938.543	66
944.439	98
950.328	140
956.21	270
962.088	342
967.958	218
973.824	130
979.682	86
985.534	74
991.382	72
997.222	66
1003.06	70
1008.89	64
1014.71	64
1020.53	72
1026.34	86
1032.14	84
1037.94	92
1043.73	86
1049.52	70
1055.3	74
1061.08	58
1066.85	66
1072.61	60
1078.37	54
1084.12	64
1089.87	60
1095.61	64
1101.34	74
1107.07	144
1112.8	346
1118.51	138
1124.22	104
1129.93	78
1135.63	86
1141.32	84
1147.01	80
1152.69	76
1158.37	92
1164.04	92
1169.71	92
1175.37	98
1181.02	140
1186.67	234
1192.31	160
1197.95	138
1203.58	168
1209.2	120
1214.82	94
1220.44	96
1226.05	118
1231.65	136
1237.25	96
1242.84	88
1248.42	88
1254	88
1259.58	92
1265.15	88
1270.71	102
1276.27	108
1281.82	126
1287.37	148
1292.91	188
1298.45	340
1303.98	750
1309.5	490
1315.02	262
1320.53	188
1326.04	182
1331.54	168
1337.04	144
1342.53	136
1348.02	160
1353.5	156
1358.98	144
1364.45	148
1369.91	162
1375.37	338
1380.82	414
1386.27	272
1391.71	148
1397.15	134
1402.58	136
1408.01	134
1413.43	140
1418.85	152
1424.26	176
1429.66	180
1435.06	186
1440.46	204
1445.85	198
1451.23	174
1456.61	156
1461.98	138
1467.35	152
1472.71	150
1478.07	136
1483.42	124
1488.77	124
1494.11	106
1499.45	116
1504.78	118
1510.11	110
1515.43	100
1520.74	108
1526.05	104
1531.36	108
1536.66	104
1541.95	104
1547.24	108
1552.52	106
1557.8	108
1563.08	112
1568.35	116
1573.61	120
1578.87	134
1584.12	158
1589.37	226
1594.61	330
1599.85	432
1605.08	416
1610.31	322
1615.53	236
1620.75	160
1625.96	114
1631.17	116
1636.37	90
1641.57	96
1646.76	84
1651.95	82
1657.13	78
1662.31	84
1667.48	74
1672.65	80
1677.81	74
1682.97	74
1688.12	80
1693.27	78
1698.41	82
1702.26	78