File: Jesse_Dataset_v2/Pure Raman/Polypropylene oxide/785nm/ps-ppo-6jan25-0,0000-map2_Y05_X09.txt
204.377	414
211.048	348
217.712	374
224.369	492
231.019	942
237.661	958
244.297	666
250.924	434
257.546	278
264.16	220
270.766	186
277.365	174
283.958	248
290.543	400
297.121	450
303.693	320
310.256	264
316.813	248
323.362	230
329.905	264
336.441	278
342.969	210
349.491	220
356.006	226
362.513	188
369.014	206
375.508	196
381.994	158
388.473	136
394.947	132
401.412	122
407.871	154
414.323	218
420.768	172
427.206	116
433.637	100
440.062	92
446.479	78
452.89	74
459.293	76
465.691	104
472.081	150
478.463	238
484.84	294
491.21	178
497.573	112
503.929	86
510.279	162
516.621	188
522.957	162
529.287	242
535.609	426
541.925	414
548.234	220
554.536	222
560.832	420
567.12	1494
573.403	2074
579.679	526
585.948	350
592.211	280
598.466	202
604.715	118
610.958	96
617.194	100
623.424	120
629.647	134
635.864	156
642.074	138
648.276	104
654.473	88
660.664	78
666.847	66
673.025	62
679.195	60
685.36	62
691.517	56
697.669	58
703.814	58
709.953	88
716.085	94
722.21	78
728.33	70
734.443	80
740.549	84
746.65	136
752.743	120
758.831	102
764.912	74
770.986	68
777.055	82
783.117	86
789.173	66
795.222	64
801.265	72
807.302	82
813.333	72
819.357	86
825.376	140
831.387	494
837.392	248
843.392	102
849.386	92
855.372	86
861.353	80
867.328	74
873.296	64
879.258	62
885.214	58
891.164	54
897.108	56
903.046	58
908.977	56
914.903	52
920.822	60
926.735	62
932.643	66
938.543	70
944.439	98
950.328	150
956.21	340
962.088	394
967.958	236
973.824	144
979.682	86
985.534	70
991.382	66
997.222	62
1003.06	62
1008.89	58
1014.71	68
1020.53	74
1026.34	88
1032.14	98
1037.94	96
1043.73	82
1049.52	74
1055.3	66
1061.08	70
1066.85	68
1072.61	68
1078.37	60
1084.12	64
1089.87	70
1095.61	70
1101.34	84
1107.07	142
1112.8	366
1118.51	172
1124.22	106
1129.93	90
1135.63	80
1141.32	90
1147.01	74
1152.69	74
1158.37	92
1164.04	84
1169.71	88
1175.37	102
1181.02	156
1186.67	254
1192.31	178
1197.95	148
1203.58	174
1209.2	136
1214.82	92
1220.44	100
1226.05	114
1231.65	130
1237.25	102
1242.84	90
1248.42	90
1254	88
1259.58	94
1265.15	94
1270.71	98
1276.27	110
1281.82	124
1287.37	150
1292.91	192
1298.45	372
1303.98	798
1309.5	554
1315.02	260
1320.53	196
1326.04	196
1331.54	168
1337.04	150
1342.53	160
1348.02	166
1353.5	170
1358.98	146
1364.45	150
1369.91	176
1375.37	344
1380.82	418
1386.27	292
1391.71	166
1397.15	140
1402.58	144
1408.01	136
1413.43	148
1418.85	160
1424.26	176
1429.66	192
1435.06	198
1440.46	226
1445.85	198
1451.23	176
1456.61	170
1461.98	160
1467.35	152
1472.71	148
1478.07	146
1483.42	128
1488.77	132
1494.11	128
1499.45	110
1504.78	118
1510.11	108
1515.43	116
1520.74	110
1526.05	118
1531.36	122
1536.66	108
1541.95	108
1547.24	114
1552.52	112
1557.8	112
1563.08	116
1568.35	130
1573.61	130
1578.87	148
1584.12	194
1589.37	240
1594.61	358
1599.85	474
1605.08	486
1610.31	356
1615.53	260
1620.75	168
1625.96	122
1631.17	98
1636.37	94
1641.57	100
1646.76	84
1651.95	76
1657.13	88
1662.31	78
1667.48	80
1672.65	72
1677.81	82
1682.97	78
1688.12	90
1693.27	76
1698.41	76
1702.26	78