File: Jesse_Dataset_v2/Pure Raman/Polypropylene oxide/785nm/ps-ppo-6jan25-0,0000-map2_Y04_X00.txt
204.377	394
211.048	356
217.712	344
224.369	462
231.019	914
237.661	912
244.297	636
250.924	402
257.546	262
264.16	190
270.766	176
277.365	176
283.958	230
290.543	368
297.121	438
303.693	330
310.256	256
316.813	226
323.362	232
329.905	266
336.441	270
342.969	222
349.491	208
356.006	214
362.513	184
369.014	186
375.508	194
381.994	148
388.473	132
394.947	132
401.412	130
407.871	148
414.323	224
420.768	166
427.206	124
433.637	100
440.062	88
446.479	76
452.89	84
459.293	80
465.691	110
472.081	150
478.463	238
484.84	308
491.21	172
497.573	112
503.929	100
510.279	168
516.621	164
522.957	158
529.287	236
535.609	410
541.925	412
548.234	214
554.536	212
560.832	410
567.12	1436
573.403	1942
579.679	492
585.948	332
592.211	268
598.466	194
604.715	116
610.958	90
617.194	94
623.424	102
629.647	122
635.864	142
642.074	132
648.276	96
654.473	80
660.664	86
666.847	70
673.025	62
679.195	64
685.36	64
691.517	64
697.669	58
703.814	64
709.953	80
716.085	94
722.21	74
728.33	74
734.443	78
740.549	84
746.65	144
752.743	118
758.831	92
764.912	70
770.986	66
777.055	70
783.117	74
789.173	66
795.222	66
801.265	72
807.302	72
813.333	76
819.357	84
825.376	140
831.387	484
837.392	248
843.392	94
849.386	96
855.372	86
861.353	86
867.328	70
873.296	62
879.258	62
885.214	52
891.164	60
897.108	58
903.046	58
908.977	60
914.903	58
920.822	60
926.735	60
932.643	64
938.543	76
944.439	82
950.328	150
956.21	290
962.088	378
967.958	236
973.824	132
979.682	90
985.534	66
991.382	74
997.222	62
1003.06	66
1008.89	64
1014.71	66
1020.53	72
1026.34	84
1032.14	90
1037.94	90
1043.73	86
1049.52	74
1055.3	64
1061.08	64
1066.85	62
1072.61	68
1078.37	64
1084.12	66
1089.87	68
1095.61	70
1101.34	76
1107.07	138
1112.8	336
1118.51	152
1124.22	106
1129.93	88
1135.63	86
1141.32	90
1147.01	78
1152.69	76
1158.37	84
1164.04	98
1169.71	84
1175.37	92
1181.02	152
1186.67	242
1192.31	172
1197.95	142
1203.58	166
1209.2	124
1214.82	92
1220.44	92
1226.05	118
1231.65	130
1237.25	90
1242.84	84
1248.42	90
1254	86
1259.58	86
1265.15	100
1270.71	92
1276.27	108
1281.82	124
1287.37	148
1292.91	202
1298.45	354
1303.98	762
1309.5	506
1315.02	266
1320.53	204
1326.04	186
1331.54	172
1337.04	154
1342.53	150
1348.02	162
1353.5	170
1358.98	142
1364.45	138
1369.91	174
1375.37	352
1380.82	418
1386.27	268
1391.71	158
1397.15	140
1402.58	128
1408.01	130
1413.43	148
1418.85	164
1424.26	162
1429.66	180
1435.06	208
1440.46	194
1445.85	192
1451.23	160
1456.61	172
1461.98	152
1467.35	152
1472.71	152
1478.07	150
1483.42	136
1488.77	118
1494.11	116
1499.45	106
1504.78	110
1510.11	110
1515.43	110
1520.74	88
1526.05	122
1531.36	106
1536.66	104
1541.95	114
1547.24	104
1552.52	104
1557.8	120
1563.08	106
1568.35	122
1573.61	130
1578.87	146
1584.12	184
1589.37	232
1594.61	330
1599.85	430
1605.08	452
1610.31	336
1615.53	242
1620.75	172
1625.96	132
1631.17	110
1636.37	88
1641.57	86
1646.76	82
1651.95	70
1657.13	78
1662.31	80
1667.48	76
1672.65	72
1677.81	70
1682.97	78
1688.12	72
1693.27	80
1698.41	82
1702.26	72