File: Jesse_Dataset_v2/Pure Raman/Polypropylene oxide/785nm/ps-ppo-6jan25-0,0000-map2_Y00_X09.txt
204.377	386
211.048	332
217.712	312
224.369	460
231.019	854
237.661	836
244.297	602
250.924	378
257.546	258
264.16	196
270.766	174
277.365	174
283.958	220
290.543	354
297.121	404
303.693	306
310.256	254
316.813	212
323.362	216
329.905	240
336.441	228
342.969	198
349.491	210
356.006	194
362.513	178
369.014	202
375.508	170
381.994	146
388.473	136
394.947	124
401.412	134
407.871	144
414.323	216
420.768	158
427.206	114
433.637	100
440.062	88
446.479	78
452.89	80
459.293	86
465.691	108
472.081	140
478.463	216
484.84	274
491.21	174
497.573	92
503.929	104
510.279	158
516.621	164
522.957	156
529.287	222
535.609	388
541.925	388
548.234	206
554.536	216
560.832	378
567.12	1392
573.403	1826
579.679	458
585.948	324
592.211	248
598.466	208
604.715	116
610.958	100
617.194	88
623.424	108
629.647	124
635.864	148
642.074	128
648.276	110
654.473	86
660.664	70
666.847	68
673.025	58
679.195	58
685.36	64
691.517	60
697.669	64
703.814	64
709.953	74
716.085	94
722.21	82
728.33	74
734.443	72
740.549	88
746.65	134
752.743	110
758.831	84
764.912	64
770.986	68
777.055	64
783.117	74
789.173	64
795.222	70
801.265	70
807.302	80
813.333	80
819.357	76
825.376	128
831.387	444
837.392	238
843.392	104
849.386	94
855.372	88
861.353	84
867.328	66
873.296	64
879.258	66
885.214	62
891.164	58
897.108	54
903.046	56
908.977	54
914.903	60
920.822	60
926.735	68
932.643	66
938.543	76
944.439	84
950.328	150
956.21	274
962.088	354
967.958	204
973.824	132
979.682	82
985.534	76
991.382	72
997.222	60
1003.06	60
1008.89	68
1014.71	68
1020.53	80
1026.34	82
1032.14	106
1037.94	84
1043.73	78
1049.52	70
1055.3	60
1061.08	66
1066.85	64
1072.61	56
1078.37	64
1084.12	58
1089.87	66
1095.61	66
1101.34	72
1107.07	134
1112.8	342
1118.51	168
1124.22	88
1129.93	84
1135.63	78
1141.32	86
1147.01	78
1152.69	74
1158.37	82
1164.04	94
1169.71	80
1175.37	90
1181.02	146
1186.67	226
1192.31	156
1197.95	150
1203.58	162
1209.2	120
1214.82	88
1220.44	88
1226.05	104
1231.65	122
1237.25	96
1242.84	98
1248.42	84
1254	78
1259.58	90
1265.15	92
1270.71	100
1276.27	114
1281.82	120
1287.37	142
1292.91	180
1298.45	328
1303.98	728
1309.5	510
1315.02	256
1320.53	188
1326.04	168
1331.54	158
1337.04	138
1342.53	134
1348.02	150
1353.5	156
1358.98	148
1364.45	146
1369.91	158
1375.37	324
1380.82	384
1386.27	264
1391.71	164
1397.15	124
1402.58	116
1408.01	128
1413.43	144
1418.85	166
1424.26	178
1429.66	180
1435.06	194
1440.46	196
1445.85	188
1451.23	162
1456.61	154
1461.98	154
1467.35	150
1472.71	144
1478.07	146
1483.42	124
1488.77	108
1494.11	116
1499.45	114
1504.78	118
1510.11	108
1515.43	110
1520.74	102
1526.05	98
1531.36	106
1536.66	108
1541.95	96
1547.24	106
1552.52	112
1557.8	112
1563.08	112
1568.35	116
1573.61	124
1578.87	144
1584.12	168
1589.37	234
1594.61	310
1599.85	420
1605.08	438
1610.31	322
1615.53	238
1620.75	164
1625.96	126
1631.17	96
1636.37	86
1641.57	80
1646.76	88
1651.95	76
1657.13	84
1662.31	80
1667.48	72
1672.65	78
1677.81	78
1682.97	78
1688.12	80
1693.27	92
1698.41	76
1702.26	92