File: Jesse_Dataset_v2/Pure Raman/Polypropylene oxide/785nm/ps-ppo-6jan25-0,0000-map2_Y05_X04.txt
204.377	368
211.048	320
217.712	322
224.369	444
231.019	868
237.661	874
244.297	608
250.924	394
257.546	258
264.16	196
270.766	180
277.365	174
283.958	224
290.543	360
297.121	412
303.693	318
310.256	252
316.813	226
323.362	218
329.905	244
336.441	250
342.969	194
349.491	192
356.006	214
362.513	184
369.014	180
375.508	182
381.994	136
388.473	134
394.947	122
401.412	118
407.871	142
414.323	194
420.768	160
427.206	112
433.637	98
440.062	80
446.479	70
452.89	88
459.293	78
465.691	92
472.081	144
478.463	212
484.84	270
491.21	152
497.573	112
503.929	96
510.279	146
516.621	164
522.957	144
529.287	222
535.609	400
541.925	386
548.234	214
554.536	206
560.832	378
567.12	1382
573.403	1862
579.679	464
585.948	322
592.211	242
598.466	216
604.715	114
610.958	92
617.194	90
623.424	106
629.647	132
635.864	152
642.074	122
648.276	110
654.473	90
660.664	70
666.847	62
673.025	58
679.195	56
685.36	58
691.517	62
697.669	60
703.814	60
709.953	76
716.085	96
722.21	74
728.33	68
734.443	66
740.549	86
746.65	134
752.743	116
758.831	80
764.912	72
770.986	74
777.055	66
783.117	70
789.173	70
795.222	64
801.265	64
807.302	72
813.333	68
819.357	86
825.376	120
831.387	472
837.392	230
843.392	86
849.386	86
855.372	80
861.353	82
867.328	68
873.296	60
879.258	58
885.214	56
891.164	56
897.108	62
903.046	58
908.977	58
914.903	54
920.822	60
926.735	50
932.643	62
938.543	68
944.439	90
950.328	134
956.21	286
962.088	362
967.958	206
973.824	134
979.682	78
985.534	68
991.382	76
997.222	60
1003.06	66
1008.89	58
1014.71	60
1020.53	74
1026.34	72
1032.14	92
1037.94	82
1043.73	86
1049.52	64
1055.3	64
1061.08	64
1066.85	62
1072.61	58
1078.37	58
1084.12	62
1089.87	58
1095.61	62
1101.34	82
1107.07	142
1112.8	344
1118.51	148
1124.22	98
1129.93	82
1135.63	74
1141.32	86
1147.01	76
1152.69	66
1158.37	88
1164.04	88
1169.71	82
1175.37	100
1181.02	142
1186.67	218
1192.31	162
1197.95	140
1203.58	164
1209.2	114
1214.82	86
1220.44	84
1226.05	108
1231.65	126
1237.25	86
1242.84	80
1248.42	86
1254	84
1259.58	70
1265.15	94
1270.71	92
1276.27	84
1281.82	132
1287.37	142
1292.91	184
1298.45	348
1303.98	740
1309.5	506
1315.02	248
1320.53	186
1326.04	180
1331.54	166
1337.04	144
1342.53	148
1348.02	148
1353.5	164
1358.98	138
1364.45	142
1369.91	180
1375.37	330
1380.82	384
1386.27	254
1391.71	150
1397.15	134
1402.58	140
1408.01	134
1413.43	134
1418.85	154
1424.26	182
1429.66	180
1435.06	194
1440.46	206
1445.85	194
1451.23	162
1456.61	146
1461.98	146
1467.35	156
1472.71	146
1478.07	150
1483.42	142
1488.77	126
1494.11	128
1499.45	112
1504.78	114
1510.11	106
1515.43	108
1520.74	106
1526.05	108
1531.36	108
1536.66	106
1541.95	102
1547.24	112
1552.52	112
1557.8	120
1563.08	102
1568.35	118
1573.61	120
1578.87	132
1584.12	186
1589.37	224
1594.61	328
1599.85	426
1605.08	426
1610.31	334
1615.53	240
1620.75	164
1625.96	132
1631.17	108
1636.37	92
1641.57	92
1646.76	78
1651.95	76
1657.13	82
1662.31	82
1667.48	86
1672.65	76
1677.81	80
1682.97	78
1688.12	72
1693.27	76
1698.41	84
1702.26	86