File: Jesse_Dataset_v2/Pure Raman/Polypropylene oxide/785nm/ps-ppo-6jan25-0,0000-map2_Y09_X00.txt
204.377	370
211.048	310
217.712	314
224.369	446
231.019	850
237.661	844
244.297	572
250.924	376
257.546	250
264.16	196
270.766	178
277.365	168
283.958	210
290.543	338
297.121	392
303.693	308
310.256	252
316.813	224
323.362	224
329.905	248
336.441	240
342.969	204
349.491	202
356.006	208
362.513	190
369.014	192
375.508	174
381.994	142
388.473	128
394.947	118
401.412	120
407.871	146
414.323	206
420.768	164
427.206	106
433.637	94
440.062	76
446.479	82
452.89	78
459.293	78
465.691	100
472.081	146
478.463	208
484.84	274
491.21	170
497.573	96
503.929	96
510.279	152
516.621	168
522.957	140
529.287	220
535.609	394
541.925	400
548.234	216
554.536	194
560.832	382
567.12	1352
573.403	1870
579.679	470
585.948	334
592.211	248
598.466	192
604.715	110
610.958	90
617.194	90
623.424	110
629.647	124
635.864	138
642.074	132
648.276	98
654.473	74
660.664	76
666.847	70
673.025	56
679.195	64
685.36	56
691.517	62
697.669	58
703.814	64
709.953	84
716.085	80
722.21	76
728.33	70
734.443	82
740.549	88
746.65	138
752.743	124
758.831	92
764.912	74
770.986	70
777.055	76
783.117	68
789.173	64
795.222	68
801.265	60
807.302	78
813.333	68
819.357	88
825.376	134
831.387	452
837.392	242
843.392	104
849.386	98
855.372	82
861.353	66
867.328	60
873.296	68
879.258	66
885.214	54
891.164	58
897.108	60
903.046	54
908.977	58
914.903	52
920.822	54
926.735	62
932.643	60
938.543	66
944.439	90
950.328	134
956.21	272
962.088	320
967.958	210
973.824	122
979.682	84
985.534	76
991.382	70
997.222	60
1003.06	64
1008.89	54
1014.71	72
1020.53	70
1026.34	82
1032.14	88
1037.94	92
1043.73	82
1049.52	72
1055.3	62
1061.08	64
1066.85	60
1072.61	58
1078.37	58
1084.12	70
1089.87	72
1095.61	70
1101.34	78
1107.07	142
1112.8	332
1118.51	150
1124.22	102
1129.93	78
1135.63	72
1141.32	88
1147.01	74
1152.69	62
1158.37	88
1164.04	92
1169.71	74
1175.37	88
1181.02	138
1186.67	222
1192.31	158
1197.95	158
1203.58	170
1209.2	128
1214.82	88
1220.44	86
1226.05	106
1231.65	128
1237.25	88
1242.84	90
1248.42	82
1254	86
1259.58	86
1265.15	84
1270.71	102
1276.27	106
1281.82	112
1287.37	146
1292.91	176
1298.45	344
1303.98	708
1309.5	484
1315.02	246
1320.53	174
1326.04	170
1331.54	164
1337.04	136
1342.53	140
1348.02	152
1353.5	162
1358.98	144
1364.45	158
1369.91	156
1375.37	320
1380.82	402
1386.27	264
1391.71	164
1397.15	132
1402.58	126
1408.01	124
1413.43	138
1418.85	148
1424.26	168
1429.66	182
1435.06	198
1440.46	196
1445.85	184
1451.23	166
1456.61	146
1461.98	146
1467.35	138
1472.71	138
1478.07	130
1483.42	146
1488.77	126
1494.11	112
1499.45	124
1504.78	106
1510.11	114
1515.43	102
1520.74	102
1526.05	100
1531.36	104
1536.66	106
1541.95	104
1547.24	112
1552.52	102
1557.8	94
1563.08	102
1568.35	110
1573.61	118
1578.87	140
1584.12	156
1589.37	224
1594.61	338
1599.85	430
1605.08	418
1610.31	332
1615.53	248
1620.75	160
1625.96	118
1631.17	108
1636.37	90
1641.57	88
1646.76	80
1651.95	78
1657.13	78
1662.31	80
1667.48	80
1672.65	68
1677.81	74
1682.97	80
1688.12	70
1693.27	78
1698.41	76
1702.26	78