File: Jesse_Dataset_v2/Pure Raman/Polypropylene oxide/785nm/ps-ppo-6jan25-0,0000-map2_Y02_X00.txt
204.377	392
211.048	360
217.712	346
224.369	488
231.019	930
237.661	956
244.297	672
250.924	418
257.546	278
264.16	216
270.766	190
277.365	182
283.958	240
290.543	386
297.121	442
303.693	346
310.256	286
316.813	246
323.362	234
329.905	274
336.441	262
342.969	218
349.491	222
356.006	226
362.513	202
369.014	208
375.508	192
381.994	166
388.473	146
394.947	142
401.412	136
407.871	160
414.323	226
420.768	168
427.206	130
433.637	110
440.062	86
446.479	86
452.89	90
459.293	82
465.691	112
472.081	156
478.463	228
484.84	310
491.21	184
497.573	110
503.929	104
510.279	174
516.621	186
522.957	160
529.287	234
535.609	428
541.925	418
548.234	232
554.536	228
560.832	410
567.12	1456
573.403	2024
579.679	516
585.948	350
592.211	286
598.466	222
604.715	120
610.958	92
617.194	102
623.424	116
629.647	148
635.864	166
642.074	144
648.276	98
654.473	90
660.664	76
666.847	64
673.025	68
679.195	64
685.36	66
691.517	66
697.669	64
703.814	66
709.953	86
716.085	108
722.21	80
728.33	74
734.443	80
740.549	96
746.65	154
752.743	122
758.831	106
764.912	74
770.986	72
777.055	88
783.117	86
789.173	76
795.222	66
801.265	70
807.302	78
813.333	72
819.357	84
825.376	138
831.387	484
837.392	268
843.392	110
849.386	94
855.372	92
861.353	80
867.328	72
873.296	72
879.258	66
885.214	66
891.164	56
897.108	60
903.046	62
908.977	66
914.903	62
920.822	54
926.735	66
932.643	66
938.543	76
944.439	92
950.328	152
956.21	312
962.088	364
967.958	240
973.824	144
979.682	88
985.534	76
991.382	80
997.222	62
1003.06	70
1008.89	60
1014.71	70
1020.53	90
1026.34	88
1032.14	108
1037.94	96
1043.73	84
1049.52	74
1055.3	62
1061.08	64
1066.85	66
1072.61	62
1078.37	66
1084.12	64
1089.87	66
1095.61	74
1101.34	82
1107.07	150
1112.8	356
1118.51	168
1124.22	104
1129.93	88
1135.63	80
1141.32	84
1147.01	80
1152.69	84
1158.37	80
1164.04	92
1169.71	90
1175.37	102
1181.02	156
1186.67	242
1192.31	170
1197.95	164
1203.58	176
1209.2	136
1214.82	102
1220.44	86
1226.05	112
1231.65	130
1237.25	104
1242.84	90
1248.42	88
1254	92
1259.58	94
1265.15	90
1270.71	92
1276.27	108
1281.82	142
1287.37	150
1292.91	188
1298.45	352
1303.98	774
1309.5	548
1315.02	274
1320.53	198
1326.04	198
1331.54	168
1337.04	148
1342.53	170
1348.02	160
1353.5	160
1358.98	152
1364.45	138
1369.91	180
1375.37	346
1380.82	444
1386.27	280
1391.71	164
1397.15	146
1402.58	126
1408.01	142
1413.43	144
1418.85	170
1424.26	184
1429.66	186
1435.06	222
1440.46	220
1445.85	190
1451.23	184
1456.61	160
1461.98	160
1467.35	150
1472.71	148
1478.07	144
1483.42	138
1488.77	130
1494.11	126
1499.45	128
1504.78	112
1510.11	112
1515.43	106
1520.74	110
1526.05	106
1531.36	110
1536.66	106
1541.95	102
1547.24	104
1552.52	114
1557.8	114
1563.08	116
1568.35	122
1573.61	132
1578.87	136
1584.12	172
1589.37	240
1594.61	346
1599.85	440
1605.08	470
1610.31	370
1615.53	254
1620.75	182
1625.96	134
1631.17	98
1636.37	96
1641.57	98
1646.76	86
1651.95	90
1657.13	80
1662.31	84
1667.48	82
1672.65	76
1677.81	82
1682.97	80
1688.12	86
1693.27	84
1698.41	68
1702.26	80