File: Jesse_Dataset_v2/Pure Raman/Polypropylene oxide/785nm/ps-ppo-6jan25-0,0000-map2_Y02_X03.txt
204.377	390
211.048	344
217.712	358
224.369	500
231.019	914
237.661	930
244.297	656
250.924	412
257.546	288
264.16	214
270.766	184
277.365	182
283.958	226
290.543	376
297.121	440
303.693	338
310.256	260
316.813	242
323.362	238
329.905	258
336.441	240
342.969	220
349.491	202
356.006	220
362.513	190
369.014	202
375.508	198
381.994	146
388.473	138
394.947	128
401.412	126
407.871	150
414.323	218
420.768	158
427.206	116
433.637	100
440.062	86
446.479	86
452.89	74
459.293	90
465.691	90
472.081	150
478.463	226
484.84	294
491.21	166
497.573	110
503.929	106
510.279	166
516.621	176
522.957	154
529.287	238
535.609	406
541.925	420
548.234	238
554.536	212
560.832	384
567.12	1470
573.403	2034
579.679	516
585.948	332
592.211	280
598.466	192
604.715	120
610.958	92
617.194	100
623.424	114
629.647	124
635.864	154
642.074	136
648.276	98
654.473	84
660.664	74
666.847	64
673.025	58
679.195	60
685.36	60
691.517	60
697.669	54
703.814	70
709.953	78
716.085	106
722.21	80
728.33	76
734.443	78
740.549	100
746.65	140
752.743	114
758.831	88
764.912	76
770.986	70
777.055	78
783.117	78
789.173	76
795.222	74
801.265	70
807.302	80
813.333	68
819.357	88
825.376	138
831.387	500
837.392	258
843.392	98
849.386	108
855.372	86
861.353	86
867.328	68
873.296	66
879.258	68
885.214	56
891.164	52
897.108	56
903.046	56
908.977	58
914.903	62
920.822	64
926.735	64
932.643	60
938.543	70
944.439	90
950.328	162
956.21	306
962.088	366
967.958	232
973.824	134
979.682	82
985.534	76
991.382	70
997.222	64
1003.06	56
1008.89	62
1014.71	68
1020.53	70
1026.34	90
1032.14	96
1037.94	92
1043.73	84
1049.52	72
1055.3	68
1061.08	66
1066.85	68
1072.61	60
1078.37	64
1084.12	64
1089.87	68
1095.61	66
1101.34	80
1107.07	156
1112.8	360
1118.51	154
1124.22	108
1129.93	88
1135.63	82
1141.32	90
1147.01	76
1152.69	70
1158.37	90
1164.04	86
1169.71	88
1175.37	102
1181.02	140
1186.67	242
1192.31	184
1197.95	160
1203.58	188
1209.2	126
1214.82	92
1220.44	86
1226.05	108
1231.65	114
1237.25	104
1242.84	82
1248.42	86
1254	80
1259.58	92
1265.15	90
1270.71	96
1276.27	110
1281.82	128
1287.37	162
1292.91	204
1298.45	346
1303.98	782
1309.5	508
1315.02	276
1320.53	200
1326.04	180
1331.54	188
1337.04	154
1342.53	168
1348.02	172
1353.5	170
1358.98	170
1364.45	152
1369.91	178
1375.37	348
1380.82	436
1386.27	296
1391.71	172
1397.15	134
1402.58	134
1408.01	138
1413.43	146
1418.85	150
1424.26	182
1429.66	188
1435.06	206
1440.46	212
1445.85	202
1451.23	162
1456.61	166
1461.98	158
1467.35	140
1472.71	152
1478.07	148
1483.42	132
1488.77	138
1494.11	128
1499.45	114
1504.78	106
1510.11	120
1515.43	118
1520.74	110
1526.05	108
1531.36	122
1536.66	114
1541.95	108
1547.24	108
1552.52	118
1557.8	114
1563.08	114
1568.35	112
1573.61	126
1578.87	144
1584.12	172
1589.37	246
1594.61	366
1599.85	454
1605.08	464
1610.31	372
1615.53	252
1620.75	190
1625.96	128
1631.17	116
1636.37	108
1641.57	80
1646.76	82
1651.95	86
1657.13	84
1662.31	84
1667.48	76
1672.65	82
1677.81	74
1682.97	84
1688.12	78
1693.27	78
1698.41	86
1702.26	82