File: Jesse_Dataset_v2/Pure Raman/Polypropylene oxide/785nm/ps-ppo-6jan25-0,0000-map2_Y02_X07.txt
204.377	358
211.048	320
217.712	308
224.369	442
231.019	872
237.661	870
244.297	602
250.924	390
257.546	248
264.16	202
270.766	180
277.365	170
283.958	226
290.543	366
297.121	408
303.693	330
310.256	262
316.813	240
323.362	226
329.905	242
336.441	240
342.969	216
349.491	212
356.006	206
362.513	182
369.014	180
375.508	180
381.994	150
388.473	132
394.947	132
401.412	132
407.871	158
414.323	212
420.768	158
427.206	122
433.637	100
440.062	84
446.479	86
452.89	76
459.293	84
465.691	100
472.081	152
478.463	206
484.84	284
491.21	168
497.573	110
503.929	106
510.279	150
516.621	180
522.957	146
529.287	226
535.609	382
541.925	394
548.234	216
554.536	200
560.832	394
567.12	1378
573.403	1908
579.679	466
585.948	322
592.211	264
598.466	196
604.715	112
610.958	96
617.194	84
623.424	106
629.647	126
635.864	140
642.074	122
648.276	100
654.473	86
660.664	72
666.847	72
673.025	58
679.195	58
685.36	62
691.517	62
697.669	62
703.814	54
709.953	78
716.085	102
722.21	82
728.33	76
734.443	72
740.549	80
746.65	138
752.743	114
758.831	80
764.912	70
770.986	70
777.055	76
783.117	72
789.173	72
795.222	64
801.265	70
807.302	76
813.333	78
819.357	82
825.376	130
831.387	474
837.392	242
843.392	100
849.386	96
855.372	86
861.353	74
867.328	66
873.296	64
879.258	62
885.214	58
891.164	56
897.108	56
903.046	60
908.977	58
914.903	60
920.822	54
926.735	66
932.643	62
938.543	66
944.439	92
950.328	146
956.21	284
962.088	360
967.958	224
973.824	146
979.682	86
985.534	68
991.382	70
997.222	62
1003.06	66
1008.89	60
1014.71	62
1020.53	74
1026.34	78
1032.14	88
1037.94	102
1043.73	82
1049.52	78
1055.3	60
1061.08	58
1066.85	62
1072.61	62
1078.37	64
1084.12	64
1089.87	64
1095.61	72
1101.34	74
1107.07	134
1112.8	346
1118.51	160
1124.22	96
1129.93	86
1135.63	78
1141.32	90
1147.01	82
1152.69	74
1158.37	86
1164.04	90
1169.71	82
1175.37	96
1181.02	134
1186.67	240
1192.31	162
1197.95	152
1203.58	164
1209.2	134
1214.82	104
1220.44	84
1226.05	114
1231.65	124
1237.25	92
1242.84	76
1248.42	86
1254	92
1259.58	90
1265.15	94
1270.71	102
1276.27	100
1281.82	124
1287.37	148
1292.91	178
1298.45	326
1303.98	744
1309.5	494
1315.02	262
1320.53	186
1326.04	178
1331.54	184
1337.04	140
1342.53	154
1348.02	172
1353.5	166
1358.98	142
1364.45	152
1369.91	168
1375.37	308
1380.82	398
1386.27	274
1391.71	150
1397.15	132
1402.58	132
1408.01	132
1413.43	154
1418.85	158
1424.26	162
1429.66	186
1435.06	202
1440.46	198
1445.85	196
1451.23	166
1456.61	156
1461.98	154
1467.35	156
1472.71	132
1478.07	136
1483.42	130
1488.77	128
1494.11	120
1499.45	114
1504.78	110
1510.11	118
1515.43	116
1520.74	108
1526.05	100
1531.36	108
1536.66	104
1541.95	108
1547.24	104
1552.52	104
1557.8	104
1563.08	110
1568.35	116
1573.61	124
1578.87	134
1584.12	164
1589.37	230
1594.61	326
1599.85	446
1605.08	426
1610.31	338
1615.53	240
1620.75	164
1625.96	116
1631.17	108
1636.37	98
1641.57	88
1646.76	82
1651.95	78
1657.13	82
1662.31	78
1667.48	72
1672.65	76
1677.81	70
1682.97	78
1688.12	82
1693.27	82
1698.41	82
1702.26	68