File: Jesse_Dataset_v2/Pure Raman/Polypropylene oxide/785nm/ps-ppo-6jan25-0,0000-map2_Y06_X08.txt
204.377	364
211.048	346
217.712	344
224.369	488
231.019	924
237.661	938
244.297	650
250.924	416
257.546	280
264.16	220
270.766	190
277.365	200
283.958	242
290.543	392
297.121	448
303.693	332
310.256	278
316.813	244
323.362	238
329.905	246
336.441	252
342.969	222
349.491	214
356.006	212
362.513	188
369.014	186
375.508	192
381.994	146
388.473	134
394.947	130
401.412	130
407.871	152
414.323	218
420.768	176
427.206	114
433.637	98
440.062	86
446.479	84
452.89	78
459.293	78
465.691	100
472.081	154
478.463	230
484.84	292
491.21	184
497.573	114
503.929	100
510.279	160
516.621	176
522.957	166
529.287	244
535.609	398
541.925	406
548.234	210
554.536	214
560.832	422
567.12	1470
573.403	2004
579.679	504
585.948	334
592.211	264
598.466	220
604.715	112
610.958	96
617.194	88
623.424	106
629.647	142
635.864	162
642.074	126
648.276	100
654.473	88
660.664	76
666.847	70
673.025	66
679.195	66
685.36	68
691.517	58
697.669	52
703.814	66
709.953	74
716.085	98
722.21	72
728.33	74
734.443	78
740.549	88
746.65	138
752.743	118
758.831	92
764.912	74
770.986	62
777.055	84
783.117	84
789.173	68
795.222	60
801.265	66
807.302	74
813.333	70
819.357	84
825.376	138
831.387	502
837.392	246
843.392	96
849.386	94
855.372	82
861.353	74
867.328	66
873.296	60
879.258	60
885.214	62
891.164	56
897.108	64
903.046	58
908.977	58
914.903	60
920.822	58
926.735	56
932.643	64
938.543	72
944.439	96
950.328	148
956.21	304
962.088	382
967.958	216
973.824	132
979.682	86
985.534	74
991.382	76
997.222	62
1003.06	64
1008.89	58
1014.71	64
1020.53	80
1026.34	88
1032.14	100
1037.94	98
1043.73	90
1049.52	78
1055.3	62
1061.08	66
1066.85	62
1072.61	64
1078.37	66
1084.12	64
1089.87	68
1095.61	72
1101.34	78
1107.07	138
1112.8	372
1118.51	152
1124.22	98
1129.93	86
1135.63	82
1141.32	86
1147.01	78
1152.69	76
1158.37	78
1164.04	96
1169.71	88
1175.37	96
1181.02	146
1186.67	242
1192.31	158
1197.95	162
1203.58	170
1209.2	132
1214.82	96
1220.44	98
1226.05	108
1231.65	130
1237.25	100
1242.84	80
1248.42	84
1254	94
1259.58	90
1265.15	98
1270.71	96
1276.27	106
1281.82	132
1287.37	154
1292.91	204
1298.45	352
1303.98	804
1309.5	518
1315.02	264
1320.53	206
1326.04	182
1331.54	184
1337.04	166
1342.53	156
1348.02	172
1353.5	178
1358.98	146
1364.45	146
1369.91	176
1375.37	348
1380.82	440
1386.27	282
1391.71	158
1397.15	142
1402.58	126
1408.01	144
1413.43	136
1418.85	162
1424.26	174
1429.66	192
1435.06	200
1440.46	212
1445.85	204
1451.23	172
1456.61	156
1461.98	150
1467.35	150
1472.71	134
1478.07	138
1483.42	140
1488.77	124
1494.11	120
1499.45	116
1504.78	112
1510.11	108
1515.43	118
1520.74	114
1526.05	112
1531.36	102
1536.66	110
1541.95	112
1547.24	110
1552.52	110
1557.8	120
1563.08	110
1568.35	122
1573.61	128
1578.87	144
1584.12	178
1589.37	230
1594.61	356
1599.85	460
1605.08	450
1610.31	340
1615.53	238
1620.75	184
1625.96	126
1631.17	118
1636.37	96
1641.57	92
1646.76	78
1651.95	86
1657.13	74
1662.31	82
1667.48	84
1672.65	76
1677.81	80
1682.97	70
1688.12	70
1693.27	80
1698.41	76
1702.26	80