File: Jesse_Dataset_v2/Pure Raman/Polypropylene oxide/785nm/ps-ppo-6jan25-0,0000-map2_Y03_X03.txt
204.377	346
211.048	318
217.712	320
224.369	444
231.019	824
237.661	854
244.297	588
250.924	376
257.546	256
264.16	192
270.766	176
277.365	166
283.958	222
290.543	350
297.121	408
303.693	296
310.256	254
316.813	228
323.362	216
329.905	230
336.441	248
342.969	196
349.491	194
356.006	196
362.513	186
369.014	190
375.508	186
381.994	146
388.473	126
394.947	126
401.412	126
407.871	140
414.323	200
420.768	160
427.206	114
433.637	96
440.062	92
446.479	76
452.89	82
459.293	74
465.691	100
472.081	148
478.463	210
484.84	264
491.21	162
497.573	108
503.929	92
510.279	144
516.621	144
522.957	134
529.287	200
535.609	396
541.925	386
548.234	226
554.536	198
560.832	372
567.12	1356
573.403	1856
579.679	470
585.948	312
592.211	256
598.466	212
604.715	108
610.958	98
617.194	92
623.424	104
629.647	122
635.864	138
642.074	124
648.276	102
654.473	80
660.664	70
666.847	64
673.025	62
679.195	60
685.36	56
691.517	58
697.669	62
703.814	62
709.953	72
716.085	94
722.21	76
728.33	76
734.443	82
740.549	92
746.65	134
752.743	112
758.831	86
764.912	68
770.986	68
777.055	80
783.117	74
789.173	68
795.222	66
801.265	66
807.302	72
813.333	70
819.357	88
825.376	128
831.387	454
837.392	236
843.392	104
849.386	88
855.372	82
861.353	76
867.328	72
873.296	64
879.258	60
885.214	58
891.164	56
897.108	54
903.046	60
908.977	52
914.903	58
920.822	54
926.735	58
932.643	60
938.543	72
944.439	84
950.328	136
956.21	282
962.088	348
967.958	204
973.824	126
979.682	80
985.534	72
991.382	74
997.222	62
1003.06	60
1008.89	62
1014.71	68
1020.53	88
1026.34	86
1032.14	92
1037.94	90
1043.73	84
1049.52	68
1055.3	70
1061.08	60
1066.85	62
1072.61	58
1078.37	60
1084.12	58
1089.87	62
1095.61	64
1101.34	78
1107.07	138
1112.8	340
1118.51	154
1124.22	102
1129.93	88
1135.63	84
1141.32	78
1147.01	78
1152.69	62
1158.37	72
1164.04	90
1169.71	82
1175.37	96
1181.02	148
1186.67	228
1192.31	162
1197.95	150
1203.58	174
1209.2	120
1214.82	96
1220.44	82
1226.05	106
1231.65	128
1237.25	96
1242.84	78
1248.42	90
1254	80
1259.58	84
1265.15	84
1270.71	90
1276.27	94
1281.82	124
1287.37	144
1292.91	178
1298.45	330
1303.98	706
1309.5	492
1315.02	254
1320.53	186
1326.04	164
1331.54	168
1337.04	140
1342.53	132
1348.02	150
1353.5	156
1358.98	142
1364.45	148
1369.91	168
1375.37	310
1380.82	384
1386.27	248
1391.71	142
1397.15	132
1402.58	130
1408.01	132
1413.43	136
1418.85	158
1424.26	168
1429.66	182
1435.06	194
1440.46	200
1445.85	186
1451.23	170
1456.61	152
1461.98	158
1467.35	142
1472.71	134
1478.07	144
1483.42	130
1488.77	112
1494.11	122
1499.45	116
1504.78	118
1510.11	112
1515.43	102
1520.74	108
1526.05	108
1531.36	106
1536.66	106
1541.95	98
1547.24	108
1552.52	106
1557.8	94
1563.08	102
1568.35	110
1573.61	128
1578.87	130
1584.12	166
1589.37	220
1594.61	320
1599.85	420
1605.08	418
1610.31	338
1615.53	236
1620.75	168
1625.96	128
1631.17	116
1636.37	94
1641.57	96
1646.76	84
1651.95	88
1657.13	74
1662.31	72
1667.48	86
1672.65	74
1677.81	74
1682.97	82
1688.12	80
1693.27	72
1698.41	72
1702.26	80