File: Jesse_Dataset_v2/Pure Raman/Polypropylene oxide/785nm/ps-ppo-6jan25-0,0000-map2_Y01_X06.txt
204.377	376
211.048	356
217.712	342
224.369	462
231.019	882
237.661	924
244.297	634
250.924	402
257.546	272
264.16	198
270.766	180
277.365	174
283.958	234
290.543	384
297.121	430
303.693	324
310.256	258
316.813	236
323.362	226
329.905	244
336.441	250
342.969	222
349.491	206
356.006	226
362.513	186
369.014	200
375.508	188
381.994	140
388.473	122
394.947	128
401.412	124
407.871	156
414.323	208
420.768	150
427.206	122
433.637	98
440.062	86
446.479	70
452.89	72
459.293	78
465.691	110
472.081	154
478.463	228
484.84	306
491.21	166
497.573	120
503.929	96
510.279	156
516.621	176
522.957	158
529.287	226
535.609	404
541.925	414
548.234	230
554.536	198
560.832	392
567.12	1436
573.403	1982
579.679	502
585.948	332
592.211	266
598.466	208
604.715	122
610.958	92
617.194	84
623.424	112
629.647	128
635.864	150
642.074	118
648.276	110
654.473	80
660.664	74
666.847	68
673.025	66
679.195	66
685.36	62
691.517	58
697.669	64
703.814	70
709.953	76
716.085	96
722.21	80
728.33	76
734.443	84
740.549	94
746.65	144
752.743	118
758.831	92
764.912	72
770.986	70
777.055	82
783.117	74
789.173	74
795.222	70
801.265	62
807.302	74
813.333	76
819.357	88
825.376	134
831.387	498
837.392	246
843.392	110
849.386	96
855.372	84
861.353	86
867.328	72
873.296	66
879.258	62
885.214	56
891.164	52
897.108	64
903.046	60
908.977	56
914.903	58
920.822	58
926.735	58
932.643	66
938.543	64
944.439	90
950.328	150
956.21	302
962.088	374
967.958	220
973.824	138
979.682	78
985.534	76
991.382	80
997.222	62
1003.06	58
1008.89	58
1014.71	66
1020.53	72
1026.34	70
1032.14	96
1037.94	98
1043.73	84
1049.52	72
1055.3	62
1061.08	64
1066.85	66
1072.61	60
1078.37	62
1084.12	68
1089.87	66
1095.61	68
1101.34	76
1107.07	140
1112.8	342
1118.51	156
1124.22	94
1129.93	90
1135.63	84
1141.32	80
1147.01	76
1152.69	82
1158.37	80
1164.04	96
1169.71	84
1175.37	104
1181.02	146
1186.67	246
1192.31	172
1197.95	150
1203.58	180
1209.2	130
1214.82	92
1220.44	94
1226.05	106
1231.65	128
1237.25	94
1242.84	80
1248.42	88
1254	88
1259.58	94
1265.15	96
1270.71	104
1276.27	114
1281.82	124
1287.37	152
1292.91	186
1298.45	354
1303.98	774
1309.5	516
1315.02	276
1320.53	182
1326.04	178
1331.54	170
1337.04	152
1342.53	152
1348.02	172
1353.5	160
1358.98	146
1364.45	146
1369.91	174
1375.37	346
1380.82	430
1386.27	280
1391.71	160
1397.15	142
1402.58	134
1408.01	128
1413.43	156
1418.85	156
1424.26	186
1429.66	188
1435.06	186
1440.46	220
1445.85	194
1451.23	172
1456.61	156
1461.98	164
1467.35	142
1472.71	144
1478.07	148
1483.42	134
1488.77	126
1494.11	114
1499.45	116
1504.78	108
1510.11	112
1515.43	120
1520.74	106
1526.05	112
1531.36	114
1536.66	112
1541.95	108
1547.24	108
1552.52	104
1557.8	108
1563.08	110
1568.35	116
1573.61	122
1578.87	142
1584.12	194
1589.37	234
1594.61	328
1599.85	444
1605.08	444
1610.31	314
1615.53	260
1620.75	176
1625.96	134
1631.17	108
1636.37	96
1641.57	88
1646.76	86
1651.95	84
1657.13	82
1662.31	76
1667.48	84
1672.65	84
1677.81	86
1682.97	80
1688.12	78
1693.27	84
1698.41	80
1702.26	80