File: Jesse_Dataset_v2/Pure Raman/Polypropylene oxide/785nm/ps-ppo-6jan25-0,0000-map2_Y08_X09.txt
204.377	364
211.048	324
217.712	336
224.369	450
231.019	820
237.661	868
244.297	614
250.924	384
257.546	246
264.16	198
270.766	178
277.365	182
283.958	218
290.543	366
297.121	414
303.693	308
310.256	242
316.813	224
323.362	212
329.905	242
336.441	246
342.969	200
349.491	212
356.006	208
362.513	174
369.014	172
375.508	188
381.994	142
388.473	134
394.947	118
401.412	126
407.871	158
414.323	200
420.768	156
427.206	108
433.637	98
440.062	76
446.479	74
452.89	80
459.293	74
465.691	94
472.081	146
478.463	224
484.84	284
491.21	164
497.573	112
503.929	94
510.279	164
516.621	162
522.957	152
529.287	222
535.609	372
541.925	402
548.234	218
554.536	206
560.832	412
567.12	1390
573.403	1842
579.679	476
585.948	308
592.211	250
598.466	194
604.715	114
610.958	88
617.194	86
623.424	110
629.647	128
635.864	136
642.074	112
648.276	94
654.473	84
660.664	70
666.847	62
673.025	64
679.195	54
685.36	60
691.517	56
697.669	52
703.814	60
709.953	80
716.085	86
722.21	74
728.33	68
734.443	74
740.549	84
746.65	140
752.743	112
758.831	88
764.912	70
770.986	66
777.055	74
783.117	78
789.173	62
795.222	66
801.265	68
807.302	70
813.333	66
819.357	82
825.376	124
831.387	456
837.392	248
843.392	100
849.386	92
855.372	82
861.353	76
867.328	70
873.296	64
879.258	64
885.214	60
891.164	62
897.108	52
903.046	50
908.977	54
914.903	58
920.822	60
926.735	56
932.643	60
938.543	66
944.439	88
950.328	140
956.21	290
962.088	354
967.958	202
973.824	128
979.682	82
985.534	68
991.382	72
997.222	60
1003.06	66
1008.89	56
1014.71	64
1020.53	76
1026.34	80
1032.14	96
1037.94	88
1043.73	84
1049.52	74
1055.3	60
1061.08	56
1066.85	62
1072.61	68
1078.37	60
1084.12	60
1089.87	64
1095.61	68
1101.34	74
1107.07	138
1112.8	332
1118.51	158
1124.22	100
1129.93	84
1135.63	82
1141.32	84
1147.01	68
1152.69	68
1158.37	80
1164.04	94
1169.71	86
1175.37	94
1181.02	124
1186.67	224
1192.31	146
1197.95	144
1203.58	166
1209.2	114
1214.82	86
1220.44	92
1226.05	112
1231.65	128
1237.25	90
1242.84	80
1248.42	90
1254	82
1259.58	84
1265.15	90
1270.71	86
1276.27	102
1281.82	118
1287.37	154
1292.91	188
1298.45	318
1303.98	678
1309.5	496
1315.02	256
1320.53	200
1326.04	178
1331.54	158
1337.04	130
1342.53	130
1348.02	154
1353.5	152
1358.98	146
1364.45	142
1369.91	158
1375.37	338
1380.82	382
1386.27	258
1391.71	156
1397.15	128
1402.58	136
1408.01	126
1413.43	142
1418.85	138
1424.26	166
1429.66	168
1435.06	176
1440.46	198
1445.85	184
1451.23	150
1456.61	140
1461.98	152
1467.35	136
1472.71	140
1478.07	136
1483.42	124
1488.77	114
1494.11	110
1499.45	106
1504.78	104
1510.11	106
1515.43	108
1520.74	108
1526.05	100
1531.36	96
1536.66	98
1541.95	104
1547.24	102
1552.52	96
1557.8	106
1563.08	100
1568.35	114
1573.61	114
1578.87	140
1584.12	166
1589.37	226
1594.61	318
1599.85	424
1605.08	432
1610.31	334
1615.53	244
1620.75	160
1625.96	116
1631.17	102
1636.37	102
1641.57	82
1646.76	84
1651.95	80
1657.13	76
1662.31	84
1667.48	78
1672.65	82
1677.81	78
1682.97	70
1688.12	88
1693.27	72
1698.41	84
1702.26	74