File: Jesse_Dataset_v2/Pure Raman/Polypropylene oxide/785nm/ps-ppo-6jan25-0,0000-map2_Y10_X03.txt
204.377	324
211.048	284
217.712	306
224.369	402
231.019	772
237.661	788
244.297	546
250.924	352
257.546	234
264.16	168
270.766	158
277.365	166
283.958	208
290.543	314
297.121	380
303.693	270
310.256	230
316.813	190
323.362	208
329.905	208
336.441	238
342.969	184
349.491	184
356.006	188
362.513	172
369.014	162
375.508	180
381.994	130
388.473	108
394.947	112
401.412	100
407.871	144
414.323	184
420.768	138
427.206	114
433.637	88
440.062	78
446.479	74
452.89	72
459.293	74
465.691	98
472.081	154
478.463	178
484.84	258
491.21	148
497.573	100
503.929	86
510.279	138
516.621	148
522.957	132
529.287	204
535.609	350
541.925	340
548.234	182
554.536	174
560.832	366
567.12	1222
573.403	1664
579.679	438
585.948	288
592.211	236
598.466	178
604.715	110
610.958	82
617.194	88
623.424	98
629.647	120
635.864	132
642.074	100
648.276	92
654.473	68
660.664	68
666.847	68
673.025	50
679.195	54
685.36	62
691.517	58
697.669	58
703.814	60
709.953	78
716.085	84
722.21	66
728.33	72
734.443	74
740.549	78
746.65	110
752.743	120
758.831	90
764.912	70
770.986	68
777.055	74
783.117	76
789.173	58
795.222	66
801.265	58
807.302	68
813.333	74
819.357	78
825.376	126
831.387	386
837.392	220
843.392	98
849.386	84
855.372	82
861.353	72
867.328	60
873.296	60
879.258	58
885.214	60
891.164	58
897.108	56
903.046	56
908.977	60
914.903	56
920.822	54
926.735	56
932.643	62
938.543	66
944.439	82
950.328	126
956.21	258
962.088	308
967.958	188
973.824	116
979.682	80
985.534	70
991.382	58
997.222	56
1003.06	60
1008.89	56
1014.71	70
1020.53	72
1026.34	74
1032.14	90
1037.94	86
1043.73	80
1049.52	70
1055.3	68
1061.08	64
1066.85	60
1072.61	56
1078.37	58
1084.12	62
1089.87	60
1095.61	62
1101.34	76
1107.07	122
1112.8	302
1118.51	130
1124.22	94
1129.93	76
1135.63	84
1141.32	90
1147.01	70
1152.69	60
1158.37	72
1164.04	80
1169.71	82
1175.37	80
1181.02	122
1186.67	212
1192.31	148
1197.95	134
1203.58	156
1209.2	116
1214.82	86
1220.44	72
1226.05	88
1231.65	114
1237.25	82
1242.84	76
1248.42	84
1254	80
1259.58	86
1265.15	78
1270.71	76
1276.27	94
1281.82	110
1287.37	140
1292.91	158
1298.45	312
1303.98	636
1309.5	414
1315.02	228
1320.53	176
1326.04	166
1331.54	150
1337.04	132
1342.53	142
1348.02	158
1353.5	152
1358.98	142
1364.45	138
1369.91	148
1375.37	280
1380.82	356
1386.27	236
1391.71	142
1397.15	126
1402.58	122
1408.01	122
1413.43	120
1418.85	138
1424.26	150
1429.66	154
1435.06	170
1440.46	192
1445.85	176
1451.23	168
1456.61	146
1461.98	128
1467.35	138
1472.71	128
1478.07	132
1483.42	124
1488.77	108
1494.11	106
1499.45	96
1504.78	98
1510.11	102
1515.43	104
1520.74	102
1526.05	100
1531.36	112
1536.66	92
1541.95	96
1547.24	102
1552.52	106
1557.8	98
1563.08	102
1568.35	108
1573.61	116
1578.87	124
1584.12	154
1589.37	216
1594.61	282
1599.85	384
1605.08	370
1610.31	306
1615.53	214
1620.75	150
1625.96	114
1631.17	98
1636.37	86
1641.57	78
1646.76	82
1651.95	74
1657.13	78
1662.31	66
1667.48	66
1672.65	70
1677.81	74
1682.97	60
1688.12	78
1693.27	76
1698.41	72
1702.26	72