File: Jesse_Dataset_v2/Pure Raman/Polypropylene oxide/785nm/ps-ppo-6jan25-0,0000-map2_Y01_X07.txt
204.377	398
211.048	326
217.712	326
224.369	470
231.019	902
237.661	932
244.297	620
250.924	414
257.546	262
264.16	204
270.766	186
277.365	184
283.958	250
290.543	380
297.121	440
303.693	332
310.256	264
316.813	240
323.362	232
329.905	254
336.441	260
342.969	218
349.491	198
356.006	212
362.513	200
369.014	186
375.508	176
381.994	160
388.473	144
394.947	124
401.412	132
407.871	162
414.323	218
420.768	164
427.206	126
433.637	98
440.062	90
446.479	82
452.89	86
459.293	88
465.691	96
472.081	146
478.463	230
484.84	304
491.21	166
497.573	108
503.929	106
510.279	148
516.621	182
522.957	152
529.287	230
535.609	424
541.925	408
548.234	234
554.536	222
560.832	388
567.12	1402
573.403	2002
579.679	494
585.948	342
592.211	268
598.466	208
604.715	114
610.958	90
617.194	96
623.424	98
629.647	140
635.864	148
642.074	124
648.276	110
654.473	92
660.664	74
666.847	68
673.025	68
679.195	56
685.36	62
691.517	66
697.669	56
703.814	66
709.953	84
716.085	104
722.21	76
728.33	76
734.443	78
740.549	80
746.65	156
752.743	116
758.831	94
764.912	66
770.986	72
777.055	80
783.117	76
789.173	70
795.222	68
801.265	74
807.302	74
813.333	70
819.357	78
825.376	126
831.387	488
837.392	258
843.392	100
849.386	92
855.372	90
861.353	74
867.328	74
873.296	62
879.258	66
885.214	56
891.164	62
897.108	58
903.046	62
908.977	62
914.903	60
920.822	56
926.735	62
932.643	68
938.543	76
944.439	88
950.328	144
956.21	320
962.088	364
967.958	234
973.824	132
979.682	86
985.534	64
991.382	78
997.222	68
1003.06	62
1008.89	64
1014.71	66
1020.53	86
1026.34	88
1032.14	106
1037.94	98
1043.73	80
1049.52	66
1055.3	62
1061.08	62
1066.85	58
1072.61	68
1078.37	62
1084.12	62
1089.87	66
1095.61	76
1101.34	78
1107.07	136
1112.8	342
1118.51	156
1124.22	108
1129.93	78
1135.63	88
1141.32	90
1147.01	76
1152.69	78
1158.37	86
1164.04	90
1169.71	86
1175.37	100
1181.02	146
1186.67	230
1192.31	166
1197.95	166
1203.58	168
1209.2	136
1214.82	90
1220.44	88
1226.05	114
1231.65	128
1237.25	102
1242.84	80
1248.42	80
1254	92
1259.58	94
1265.15	102
1270.71	94
1276.27	112
1281.82	128
1287.37	150
1292.91	190
1298.45	346
1303.98	768
1309.5	562
1315.02	254
1320.53	198
1326.04	188
1331.54	178
1337.04	152
1342.53	152
1348.02	152
1353.5	174
1358.98	160
1364.45	148
1369.91	180
1375.37	332
1380.82	426
1386.27	284
1391.71	162
1397.15	144
1402.58	138
1408.01	138
1413.43	134
1418.85	164
1424.26	196
1429.66	196
1435.06	192
1440.46	200
1445.85	194
1451.23	160
1456.61	166
1461.98	160
1467.35	142
1472.71	142
1478.07	142
1483.42	134
1488.77	116
1494.11	124
1499.45	114
1504.78	122
1510.11	112
1515.43	108
1520.74	112
1526.05	108
1531.36	108
1536.66	106
1541.95	112
1547.24	116
1552.52	106
1557.8	120
1563.08	114
1568.35	114
1573.61	130
1578.87	144
1584.12	188
1589.37	248
1594.61	330
1599.85	438
1605.08	462
1610.31	338
1615.53	240
1620.75	176
1625.96	118
1631.17	102
1636.37	94
1641.57	88
1646.76	86
1651.95	84
1657.13	90
1662.31	82
1667.48	86
1672.65	84
1677.81	78
1682.97	84
1688.12	74
1693.27	84
1698.41	86
1702.26	72