File: Jesse_Dataset_v2/Pure Raman/Polypropylene oxide/785nm/ps-ppo-6jan25-0,0000-map2_Y08_X10.txt
204.377	374
211.048	340
217.712	340
224.369	474
231.019	910
237.661	914
244.297	636
250.924	398
257.546	280
264.16	208
270.766	184
277.365	190
283.958	228
290.543	374
297.121	424
303.693	336
310.256	282
316.813	244
323.362	246
329.905	260
336.441	250
342.969	228
349.491	196
356.006	216
362.513	202
369.014	180
375.508	194
381.994	156
388.473	140
394.947	126
401.412	132
407.871	154
414.323	208
420.768	164
427.206	128
433.637	104
440.062	88
446.479	80
452.89	86
459.293	92
465.691	106
472.081	170
478.463	212
484.84	296
491.21	172
497.573	116
503.929	96
510.279	180
516.621	164
522.957	166
529.287	246
535.609	402
541.925	404
548.234	222
554.536	218
560.832	408
567.12	1502
573.403	1980
579.679	504
585.948	330
592.211	268
598.466	212
604.715	116
610.958	90
617.194	96
623.424	108
629.647	134
635.864	148
642.074	122
648.276	108
654.473	80
660.664	82
666.847	64
673.025	60
679.195	60
685.36	58
691.517	56
697.669	66
703.814	66
709.953	80
716.085	106
722.21	80
728.33	74
734.443	90
740.549	90
746.65	146
752.743	118
758.831	92
764.912	76
770.986	72
777.055	80
783.117	78
789.173	72
795.222	68
801.265	60
807.302	78
813.333	80
819.357	88
825.376	124
831.387	498
837.392	250
843.392	98
849.386	94
855.372	88
861.353	78
867.328	68
873.296	64
879.258	66
885.214	60
891.164	62
897.108	60
903.046	60
908.977	54
914.903	54
920.822	62
926.735	60
932.643	62
938.543	80
944.439	88
950.328	134
956.21	304
962.088	356
967.958	224
973.824	134
979.682	92
985.534	72
991.382	74
997.222	54
1003.06	62
1008.89	64
1014.71	72
1020.53	74
1026.34	88
1032.14	100
1037.94	86
1043.73	82
1049.52	68
1055.3	66
1061.08	64
1066.85	64
1072.61	70
1078.37	62
1084.12	64
1089.87	70
1095.61	68
1101.34	86
1107.07	144
1112.8	370
1118.51	152
1124.22	108
1129.93	86
1135.63	86
1141.32	82
1147.01	74
1152.69	72
1158.37	86
1164.04	94
1169.71	82
1175.37	96
1181.02	154
1186.67	236
1192.31	166
1197.95	154
1203.58	176
1209.2	118
1214.82	100
1220.44	92
1226.05	116
1231.65	136
1237.25	84
1242.84	92
1248.42	86
1254	86
1259.58	90
1265.15	100
1270.71	102
1276.27	104
1281.82	122
1287.37	152
1292.91	186
1298.45	350
1303.98	748
1309.5	514
1315.02	266
1320.53	196
1326.04	170
1331.54	158
1337.04	152
1342.53	156
1348.02	166
1353.5	168
1358.98	156
1364.45	140
1369.91	170
1375.37	334
1380.82	422
1386.27	260
1391.71	156
1397.15	140
1402.58	132
1408.01	146
1413.43	132
1418.85	150
1424.26	192
1429.66	186
1435.06	212
1440.46	212
1445.85	188
1451.23	166
1456.61	156
1461.98	160
1467.35	154
1472.71	160
1478.07	140
1483.42	134
1488.77	124
1494.11	112
1499.45	112
1504.78	114
1510.11	116
1515.43	98
1520.74	110
1526.05	100
1531.36	108
1536.66	112
1541.95	110
1547.24	114
1552.52	102
1557.8	114
1563.08	108
1568.35	122
1573.61	124
1578.87	150
1584.12	172
1589.37	242
1594.61	336
1599.85	452
1605.08	458
1610.31	360
1615.53	242
1620.75	172
1625.96	128
1631.17	114
1636.37	100
1641.57	98
1646.76	82
1651.95	86
1657.13	86
1662.31	80
1667.48	76
1672.65	80
1677.81	78
1682.97	74
1688.12	82
1693.27	80
1698.41	82
1702.26	82