File: Jesse_Dataset_v2/Pure Raman/Polypropylene oxide/785nm/ps-ppo-6jan25-0,0000-map2_Y03_X07.txt
204.377	374
211.048	330
217.712	336
224.369	476
231.019	890
237.661	914
244.297	618
250.924	374
257.546	264
264.16	204
270.766	176
277.365	186
283.958	224
290.543	356
297.121	456
303.693	320
310.256	254
316.813	226
323.362	218
329.905	248
336.441	232
342.969	210
349.491	210
356.006	216
362.513	190
369.014	194
375.508	188
381.994	148
388.473	140
394.947	128
401.412	124
407.871	150
414.323	224
420.768	160
427.206	116
433.637	112
440.062	84
446.479	74
452.89	82
459.293	78
465.691	100
472.081	146
478.463	216
484.84	292
491.21	166
497.573	118
503.929	94
510.279	162
516.621	162
522.957	164
529.287	226
535.609	406
541.925	416
548.234	218
554.536	206
560.832	394
567.12	1408
573.403	1972
579.679	502
585.948	332
592.211	254
598.466	198
604.715	112
610.958	88
617.194	92
623.424	110
629.647	132
635.864	160
642.074	124
648.276	102
654.473	94
660.664	68
666.847	62
673.025	62
679.195	58
685.36	62
691.517	54
697.669	56
703.814	56
709.953	76
716.085	100
722.21	72
728.33	64
734.443	86
740.549	86
746.65	138
752.743	122
758.831	92
764.912	70
770.986	66
777.055	78
783.117	80
789.173	66
795.222	62
801.265	66
807.302	78
813.333	72
819.357	84
825.376	132
831.387	474
837.392	238
843.392	104
849.386	86
855.372	92
861.353	82
867.328	64
873.296	58
879.258	60
885.214	60
891.164	60
897.108	58
903.046	62
908.977	52
914.903	56
920.822	60
926.735	60
932.643	58
938.543	70
944.439	84
950.328	144
956.21	310
962.088	368
967.958	216
973.824	132
979.682	88
985.534	76
991.382	80
997.222	70
1003.06	62
1008.89	64
1014.71	62
1020.53	76
1026.34	84
1032.14	96
1037.94	102
1043.73	68
1049.52	68
1055.3	62
1061.08	56
1066.85	62
1072.61	66
1078.37	56
1084.12	58
1089.87	68
1095.61	66
1101.34	74
1107.07	136
1112.8	346
1118.51	160
1124.22	98
1129.93	84
1135.63	82
1141.32	80
1147.01	68
1152.69	74
1158.37	80
1164.04	88
1169.71	84
1175.37	108
1181.02	148
1186.67	246
1192.31	168
1197.95	154
1203.58	174
1209.2	134
1214.82	90
1220.44	82
1226.05	110
1231.65	136
1237.25	102
1242.84	88
1248.42	76
1254	88
1259.58	90
1265.15	92
1270.71	98
1276.27	106
1281.82	120
1287.37	160
1292.91	182
1298.45	348
1303.98	756
1309.5	500
1315.02	264
1320.53	184
1326.04	176
1331.54	170
1337.04	154
1342.53	150
1348.02	158
1353.5	164
1358.98	148
1364.45	144
1369.91	186
1375.37	354
1380.82	414
1386.27	278
1391.71	148
1397.15	134
1402.58	122
1408.01	132
1413.43	132
1418.85	160
1424.26	182
1429.66	192
1435.06	206
1440.46	212
1445.85	204
1451.23	176
1456.61	144
1461.98	146
1467.35	142
1472.71	152
1478.07	154
1483.42	130
1488.77	116
1494.11	114
1499.45	118
1504.78	112
1510.11	116
1515.43	100
1520.74	102
1526.05	106
1531.36	106
1536.66	106
1541.95	114
1547.24	106
1552.52	108
1557.8	114
1563.08	120
1568.35	114
1573.61	126
1578.87	142
1584.12	166
1589.37	234
1594.61	332
1599.85	456
1605.08	470
1610.31	330
1615.53	262
1620.75	166
1625.96	128
1631.17	106
1636.37	96
1641.57	96
1646.76	82
1651.95	80
1657.13	84
1662.31	82
1667.48	80
1672.65	74
1677.81	74
1682.97	70
1688.12	78
1693.27	86
1698.41	76
1702.26	84