File: Jesse_Dataset_v2/Pure Raman/Polypropylene oxide/785nm/ps-ppo-6jan25-0,0000-map2_Y10_X06.txt
204.377	368
211.048	316
217.712	308
224.369	446
231.019	840
237.661	848
244.297	598
250.924	372
257.546	254
264.16	182
270.766	170
277.365	170
283.958	224
290.543	352
297.121	408
303.693	300
310.256	240
316.813	206
323.362	198
329.905	244
336.441	242
342.969	206
349.491	196
356.006	186
362.513	190
369.014	170
375.508	178
381.994	138
388.473	126
394.947	116
401.412	110
407.871	146
414.323	200
420.768	154
427.206	116
433.637	88
440.062	84
446.479	78
452.89	76
459.293	80
465.691	98
472.081	140
478.463	206
484.84	264
491.21	162
497.573	108
503.929	94
510.279	168
516.621	164
522.957	142
529.287	208
535.609	384
541.925	386
548.234	208
554.536	192
560.832	370
567.12	1306
573.403	1820
579.679	436
585.948	316
592.211	260
598.466	190
604.715	104
610.958	92
617.194	86
623.424	98
629.647	124
635.864	148
642.074	124
648.276	98
654.473	82
660.664	72
666.847	66
673.025	56
679.195	54
685.36	62
691.517	60
697.669	52
703.814	66
709.953	80
716.085	94
722.21	72
728.33	68
734.443	84
740.549	86
746.65	142
752.743	116
758.831	80
764.912	70
770.986	66
777.055	82
783.117	70
789.173	62
795.222	58
801.265	58
807.302	72
813.333	66
819.357	78
825.376	126
831.387	440
837.392	242
843.392	98
849.386	88
855.372	82
861.353	74
867.328	68
873.296	60
879.258	56
885.214	52
891.164	56
897.108	58
903.046	56
908.977	62
914.903	54
920.822	64
926.735	62
932.643	56
938.543	74
944.439	76
950.328	146
956.21	276
962.088	334
967.958	208
973.824	128
979.682	86
985.534	70
991.382	68
997.222	62
1003.06	60
1008.89	64
1014.71	58
1020.53	72
1026.34	76
1032.14	98
1037.94	82
1043.73	80
1049.52	66
1055.3	68
1061.08	60
1066.85	58
1072.61	66
1078.37	58
1084.12	66
1089.87	66
1095.61	70
1101.34	74
1107.07	138
1112.8	330
1118.51	138
1124.22	88
1129.93	80
1135.63	80
1141.32	82
1147.01	74
1152.69	72
1158.37	76
1164.04	84
1169.71	82
1175.37	102
1181.02	138
1186.67	236
1192.31	170
1197.95	148
1203.58	160
1209.2	120
1214.82	92
1220.44	90
1226.05	102
1231.65	126
1237.25	96
1242.84	78
1248.42	78
1254	76
1259.58	86
1265.15	86
1270.71	94
1276.27	94
1281.82	116
1287.37	140
1292.91	182
1298.45	304
1303.98	686
1309.5	470
1315.02	244
1320.53	188
1326.04	172
1331.54	164
1337.04	140
1342.53	146
1348.02	150
1353.5	154
1358.98	140
1364.45	138
1369.91	164
1375.37	312
1380.82	370
1386.27	256
1391.71	150
1397.15	118
1402.58	130
1408.01	132
1413.43	120
1418.85	144
1424.26	164
1429.66	166
1435.06	182
1440.46	194
1445.85	174
1451.23	156
1456.61	148
1461.98	146
1467.35	134
1472.71	142
1478.07	134
1483.42	130
1488.77	120
1494.11	106
1499.45	106
1504.78	100
1510.11	112
1515.43	118
1520.74	104
1526.05	98
1531.36	108
1536.66	92
1541.95	100
1547.24	104
1552.52	96
1557.8	100
1563.08	108
1568.35	114
1573.61	120
1578.87	138
1584.12	162
1589.37	224
1594.61	318
1599.85	422
1605.08	434
1610.31	326
1615.53	224
1620.75	166
1625.96	114
1631.17	108
1636.37	90
1641.57	76
1646.76	72
1651.95	78
1657.13	78
1662.31	76
1667.48	76
1672.65	66
1677.81	72
1682.97	68
1688.12	72
1693.27	76
1698.41	70
1702.26	74