File: Jesse_Dataset_v2/Pure Raman/Polypropylene oxide/785nm/ps-ppo-6jan25-0,0000-map2_Y09_X03.txt
204.377	324
211.048	282
217.712	302
224.369	442
231.019	796
237.661	798
244.297	524
250.924	352
257.546	242
264.16	184
270.766	168
277.365	160
283.958	196
290.543	318
297.121	374
303.693	282
310.256	230
316.813	198
323.362	200
329.905	224
336.441	232
342.969	196
349.491	176
356.006	182
362.513	168
369.014	174
375.508	166
381.994	126
388.473	110
394.947	118
401.412	122
407.871	140
414.323	188
420.768	148
427.206	104
433.637	90
440.062	80
446.479	80
452.89	70
459.293	78
465.691	92
472.081	134
478.463	196
484.84	260
491.21	158
497.573	98
503.929	90
510.279	146
516.621	160
522.957	134
529.287	202
535.609	346
541.925	354
548.234	194
554.536	184
560.832	336
567.12	1230
573.403	1672
579.679	444
585.948	274
592.211	224
598.466	184
604.715	100
610.958	82
617.194	82
623.424	104
629.647	126
635.864	118
642.074	112
648.276	90
654.473	82
660.664	68
666.847	60
673.025	50
679.195	58
685.36	60
691.517	64
697.669	58
703.814	64
709.953	76
716.085	94
722.21	66
728.33	68
734.443	70
740.549	88
746.65	118
752.743	102
758.831	80
764.912	58
770.986	62
777.055	68
783.117	78
789.173	64
795.222	66
801.265	64
807.302	66
813.333	62
819.357	78
825.376	122
831.387	426
837.392	208
843.392	90
849.386	84
855.372	80
861.353	70
867.328	64
873.296	56
879.258	58
885.214	54
891.164	60
897.108	56
903.046	56
908.977	52
914.903	50
920.822	52
926.735	60
932.643	62
938.543	68
944.439	80
950.328	142
956.21	262
962.088	312
967.958	194
973.824	114
979.682	78
985.534	62
991.382	64
997.222	60
1003.06	56
1008.89	58
1014.71	68
1020.53	72
1026.34	74
1032.14	90
1037.94	86
1043.73	74
1049.52	60
1055.3	58
1061.08	58
1066.85	56
1072.61	58
1078.37	54
1084.12	52
1089.87	64
1095.61	72
1101.34	72
1107.07	124
1112.8	304
1118.51	136
1124.22	88
1129.93	82
1135.63	66
1141.32	70
1147.01	68
1152.69	68
1158.37	78
1164.04	84
1169.71	82
1175.37	90
1181.02	136
1186.67	212
1192.31	156
1197.95	140
1203.58	144
1209.2	116
1214.82	86
1220.44	86
1226.05	98
1231.65	112
1237.25	86
1242.84	92
1248.42	82
1254	84
1259.58	88
1265.15	86
1270.71	88
1276.27	90
1281.82	118
1287.37	138
1292.91	162
1298.45	310
1303.98	620
1309.5	442
1315.02	226
1320.53	164
1326.04	166
1331.54	158
1337.04	136
1342.53	130
1348.02	152
1353.5	146
1358.98	136
1364.45	132
1369.91	154
1375.37	300
1380.82	360
1386.27	256
1391.71	140
1397.15	128
1402.58	124
1408.01	132
1413.43	126
1418.85	134
1424.26	158
1429.66	172
1435.06	174
1440.46	188
1445.85	162
1451.23	162
1456.61	148
1461.98	156
1467.35	148
1472.71	124
1478.07	144
1483.42	118
1488.77	114
1494.11	104
1499.45	114
1504.78	108
1510.11	102
1515.43	96
1520.74	104
1526.05	98
1531.36	96
1536.66	94
1541.95	104
1547.24	98
1552.52	100
1557.8	108
1563.08	102
1568.35	106
1573.61	118
1578.87	138
1584.12	168
1589.37	212
1594.61	286
1599.85	368
1605.08	388
1610.31	308
1615.53	220
1620.75	154
1625.96	116
1631.17	94
1636.37	88
1641.57	80
1646.76	84
1651.95	82
1657.13	72
1662.31	74
1667.48	74
1672.65	68
1677.81	76
1682.97	66
1688.12	76
1693.27	72
1698.41	76
1702.26	72